N. Shower	Energy (GeV)	Zfirst (km)	Theta (°)	Phi (°)	N. Particles
2	18.1791	15.4083	16.7441	38.0913	1
5	29.3367	11.9961	23.7213	22.1089	3
8	27.096	15.4764	10.3013	-26.5154	1
11	38.1377	19.6898	16.0744	-49.8532	3
13	16.749	13.2134	14.7645	133.278	1
14	29.6321	22.2314	18.8613	77.2981	1
15	17.2537	27.7639	8.63524	-104.444	1
17	11.1582	17.7791	8.79653	-32.1249	1
18	14.7733	27.9969	14.1298	135.657	1
20	40.5256	13.4186	2.73197	46.871	2
24	19.4615	51.0538	18.9359	-63.5612	4
34	57.277	17.1762	7.57144	67.1586	6
47	18.4685	20.4376	17.1748	77.0187	1
49	22.9703	23.993	10.8681	-63.7125	1
50	47.1276	26.6869	19.4161	23.4232	2
51	56.4174	10.928	8.4701	-26.4353	9
52	10.6667	32.5851	16.7802	107.799	1
56	28.9467	17.0611	13.9406	-132.883	1
58	56.9132	14.0521	7.30871	-60.6928	5
60	21.8356	21.0677	13.9477	15.6556	1
64	11.2727	11.2799	21.3467	11.3582	1
73	16.6983	21.0986	15.1863	80.1036	1
75	25.9538	12.9606	15.1546	-84.9063	2
76	49.8375	12.9445	22.2216	-59.7699	2
83	13.6829	8.44708	17.6776	-122.396	1
84	70.3431	24.3672	10.9432	-86.0738	2
90	53.1368	17.1747	7.80473	87.5321	9
100	38.6329	18.4856	22.8584	-32.4402	1
104	30.8803	20.7025	22.1988	51.1499	1
105	21.719	10.4818	21.5648	-128.358	3
108	11.2749	9.27744	21.5575	-15.8951	1
110	19.9215	21.5562	7.33727	85.6617	1
114	15.1261	21.2369	12.4338	38.3842	1
115	20.0153	16.201	20.2261	87.5254	1
117	56.7681	19.9699	16.448	172.091	1
118	18.7987	22.0131	24.8258	-172.688	1
119	13.8972	25.1947	15.3884	141.261	1
120	47.1624	16.9404	1.04747	-56.1826	3
121	62.5787	20.974	9.36792	-110.413	3
122	12.5308	19.3031	5.29565	122.322	1
125	14.9955	22.0718	24.0149	158.813	1
128	11.7727	18.5727	24.7075	52.9756	1
129	12.9537	23.7438	10.5741	-21.3263	2
131	18.6881	9.45057	21.7976	91.2773	3
132	20.2736	14.4343	15.1066	82.0495	1
134	21.623	14.1287	9.2645	55.8008	1
136	58.2888	23.3972	22.984	-117.515	11
139	18.4706	16.3526	6.0011	64.8346	5
141	14.5743	13.5816	15.2542	53.8775	1
142	42.7945	18.8338	22.1688	-144.179	1
143	26.3664	24.4999	14.4976	64.1185	19
146	33.0354	22.4665	14.0859	-68.8933	1
152	21.71	21.6328	25.7705	-140.723	6
159	34.8641	23.9817	13.9177	96.6208	1
164	83.0756	20.9746	6.73698	96.9993	4
165	10.9089	6.97715	7.32764	18.0602	5
167	10.5407	16.4955	13.3832	18.7701	1
171	12.0003	21.7147	24.1324	98.5622	1
174	10.6745	17.1405	2.01838	-30.9795	1
175	14.3807	15.6284	25.5297	-112.713	1
181	40.9266	22.2386	5.34079	-16.1361	1
186	41.0595	16.2535	17.7021	-139.016	1
188	28.503	17.2928	13.0931	-97.1199	2
193	17.9784	35.1067	22.6205	-68.1354	1
196	13.679	15.065	20.3158	95.3466	2
200	28.0634	13.873	18.0085	-57.7593	1
205	68.7613	17.2285	25.5478	-91.8274	2
207	32.8771	19.735	18.0512	167.846	5
210	14.4502	24.207	12.3131	167.12	2
214	15.5774	22.7171	21.166	-133.247	1
215	11.0568	5.68343	12.1059	-129.199	1
216	22.5908	13.4582	8.51355	-77.4929	1
217	10.7967	14.7882	7.18901	16.0008	1
223	68.2418	15.6947	22.5773	-54.204	4
224	16.5449	16.0527	20.3802	-105.433	2
230	64.6939	30.7723	20.9657	-149.426	1
234	48.031	14.6963	10.4791	52.2628	2
235	20.5739	17.3578	17.9521	-62.9779	1
237	22.8421	17.715	12.8668	-147.89	1
242	45.3357	23.8603	22.5065	7.43604	2
244	77.0037	27.2104	17.4273	102.612	3
245	22.5434	8.19753	23.8994	12.5594	1
246	20.6787	14.9974	24.2777	58.1275	1
251	18.0732	30.9732	5.38082	-44.4067	1
253	12.6319	24.7723	15.1382	104.347	1
262	31.0265	27.2112	20.7307	-90.5032	2
264	97.7763	19.3831	15.0982	-70.8689	4
265	24.5683	12.6635	22.9996	-152.562	6
276	35.638	22.157	15.0226	-7.30194	1
278	66.8968	20.6157	18.5315	-143.513	3
281	11.2205	18.2507	24.7907	36.1622	1
285	16.6589	19.3651	8.92391	-179.019	1
287	16.3552	30.6958	11.3098	-5.03941	1
289	19.5898	24.4701	22.9707	-50.6765	1
292	19.0299	22.8764	24.7241	11.7189	1
294	91.797	11.6222	25.1098	-80.3698	7
297	80.3722	25.5361	6.73953	-84.0522	8
301	18.731	15.6576	18.2825	132.813	3
310	30.7145	12.9011	21.4066	-94.1384	1
311	27.1374	16.0423	18.003	-55.8629	1
314	20.3563	23.7647	19.7591	-110.955	1
317	17.807	19.0733	10.2215	-171.109	1
320	55.1506	31.3621	25.4769	107.25	1
322	25.718	13.0914	14.0654	-137.46	1
323	18.4457	13.5279	18.5947	-93.4913	1
324	95.948	30.5879	9.75005	-93.4796	10
326	25.2542	16.9557	21.484	62.1399	7
328	35.729	18.6126	25.0749	-157.466	1
330	32.2729	21.765	15.7808	112.274	1
334	10.5687	13.0693	13.2627	154.648	1
335	14.3822	21.15	10.1627	-150.062	1
339	12.2368	8.58676	18.9135	-32.4731	5
342	10.2668	16.4351	15.521	-22.4382	1
343	13.0995	11.6134	21.5763	-48.1849	1
346	33.9685	17.5324	21.5242	-75.7672	1
363	17.4192	11.1037	12.9156	131.621	1
365	35.0674	21.2693	20.1602	63.3725	2
369	51.3144	18.6119	23.0315	14.3813	1
377	11.8717	13.6628	12.859	-178.879	1
378	12.3783	14.9961	19.8152	-66.2903	1
380	13.8665	12.6658	13.4264	-107.685	1
383	15.7318	38.9698	24.514	31.9875	1
386	82.5462	24.8114	24.8208	12.1434	5
387	18.7489	26.7271	23.5304	-19.5412	1
390	69.3939	18.8013	3.3801	35.8181	1
391	28.3821	16.0701	22.1104	-90.4693	2
393	13.0479	19.3363	22.9688	-72.1867	1
397	15.2266	22.8639	19.2138	136.01	1
405	32.8721	9.43546	14.9101	72.8587	14
414	15.1179	5.3636	22.7706	-92.5158	2
415	28.508	15.6626	20.8901	23.4077	1
423	18.6454	14.8314	20.1463	70.6196	1
424	43.255	13.9333	18.0876	77.6299	2
425	26.5816	15.4466	18.4134	-153.021	3
427	12.5367	10.789	9.0347	70.9825	1
428	18.243	17.4946	8.00971	-168.688	1
431	42.2711	11.7407	3.72063	18.338	3
433	12.3845	20.8873	24.2326	-11.9993	4
434	17.9672	19.5229	6.89405	-60.8303	1
441	19.2691	15.7518	13.9477	-53.5716	1
442	11.8182	28.379	17.7674	16.5033	1
446	43.2349	16.3452	17.2497	101.715	2
447	62.9825	27.9041	15.0801	1.91763	1
448	67.3345	10.9147	25.3672	-174.735	1
451	11.4715	15.8538	14.2066	-140.752	2
452	70.6297	20.6378	5.94347	9.46471	1
454	26.7405	21.5578	15.982	-161.463	1
455	38.3319	45.8681	15.8687	-153.761	1
458	16.692	25.5069	20.0103	80.4089	1
462	15.15	19.1404	9.8512	-114.949	1
463	13.3088	19.8564	12.9255	-46.2382	7
464	15.3773	15.7527	24.087	-59.3023	1
471	17.3941	20.1928	16.5613	1.98378	1
473	41.9861	23.2773	19.2907	173.577	1
474	19.0204	14.1578	5.77978	165.672	1
475	26.1993	19.881	6.44753	-124.754	2
476	13.1922	15.2595	9.1653	95.3454	4
482	15.0167	23.1346	20.5005	63.5259	1
484	44.62	15.6549	15.5083	-7.36166	5
485	13.2662	15.4184	10.751	-131.707	1
491	13.6785	37.306	20.154	40.212	1
492	43.4568	26.9527	17.7377	-78.7731	1
493	17.778	19.8028	4.17956	-129.212	5
500	13.1008	12.4074	2.57812	-44.3456	1
503	35.9616	17.2299	14.1405	-154.106	4
508	16.6081	14.3159	20.9418	48.3882	2
513	38.9537	15.1519	9.59377	58.9475	1
514	30.3603	19.1186	24.6004	113.342	1
515	19.108	32.9974	11.6903	126.145	2
519	33.1145	21.2123	13.1376	176.479	1
522	16.0043	10.1927	18.0644	-71.5303	1
529	12.6869	13.2563	17.4335	62.3477	1
534	59.7087	36.6335	10.4443	155.382	2
537	43.0222	9.01122	22.2259	-65.5859	3
542	23.0686	17.7714	22.7283	-158.939	1
546	83.2333	27.3484	18.5093	88.8392	2
547	35.1665	21.9773	22.8868	37.2587	1
548	32.818	14.6705	1.72372	72.6985	3
549	13.0212	29.6653	14.0683	-29.5061	2
552	29.9444	20.1323	15.6802	-100.195	1
554	10.0844	26.8412	9.90608	37.4718	1
555	21.3358	24.7727	24.2447	4.61055	1
557	14.1434	33.9398	9.95128	-55.1015	1
561	33.5831	10.6331	24.9884	79.1263	1
564	15.9964	28.8901	11.2694	-109.653	1
565	17.8145	16.4417	16.8223	-170.312	1
571	12.659	15.8262	22.9834	-123.292	1
573	15.6293	20.2662	12.1901	-14.724	1
582	30.9855	15.0836	21.1839	-173.271	2
583	12.8395	20.3283	22.912	128.813	1
589	11.352	17.6918	24.4088	156.55	1
600	24.9676	33.3206	9.82421	-81.8608	1
604	11.7882	27.5925	5.29726	-19.4108	1
613	12.3627	28.5436	6.77544	-44.266	1
614	15.0293	22.1867	19.0227	8.42474	2
615	20.0286	12.0217	14.8891	43.507	1
616	19.3121	23.7643	17.9305	95.8896	1
617	10.6922	29.4972	5.00596	23.2762	1
619	45.3099	12.8612	23.1457	22.9964	2
620	21.0458	12.8128	22.3174	121.934	2
626	19.6596	17.9512	18.3421	-39.7171	4
630	23.6666	17.9987	19.4024	-169.11	1
631	10.7987	15.8136	10.8993	152.107	2
632	77.2684	11.1674	17.7651	-3.87729	8
633	29.5595	8.1013	9.29459	-154.35	5
634	13.7993	11.5309	23.8012	170.561	1
637	17.7364	7.14014	25.0569	-23.5838	3
639	10.2656	8.72513	10.1736	-115.094	1
640	63.9133	19.9389	23.7298	2.73408	2
641	11.0908	21.7025	7.48315	-24.209	1
644	34.4317	15.9233	21.9228	146.278	8
652	19.0988	14.6845	12.5948	-91.4018	2
653	19.653	18.7988	6.47456	75.9594	1
655	16.2625	31.3777	17.0628	-174.998	1
658	12.1298	24.6759	16.2531	152.106	1
659	12.1709	15.9956	10.5575	-38.0436	1
660	16.9709	27.2878	23.8162	-25.992	1
666	14.4957	20.1767	22.7617	55.2631	2
672	12.392	14.3122	24.3388	146.697	1
675	30.1363	15.0137	23.532	143.335	5
676	11.0508	19.2949	18.0927	157.941	1
677	23.3262	43.1073	13.9895	-16.5151	1
681	35.4182	24.8778	17.949	11.4441	5
685	17.5444	12.9338	24.5512	9.12505	1
686	43.4544	19.6853	10.9297	10.8742	1
687	25.8064	26.166	12.7041	-173.591	1
688	16.5523	16.0434	19.6776	9.10173	1
704	15.7829	24.03	17.5757	149.59	1
707	22.5567	21.7016	11.9046	-47.104	1
710	15.0142	8.51605	16.6635	-3.02029	3
716	27.2599	26.5561	11.6669	-96.2298	1
722	26.6905	33.6237	20.485	-7.04242	1
725	84.3003	9.79734	21.9459	44.7699	2
726	11.1473	16.0754	17.3589	-106.251	1
730	14.7961	20.7252	20.6143	17.7882	2
733	24.962	26.2043	14.4495	141.459	1
739	24.2497	16.0635	23.316	-19.9349	1
743	42.7299	16.0917	17.7725	84.7873	1
744	25.3061	10.9683	5.78881	33.3358	2
745	15.2556	28.5371	24.2118	-2.8128	1
746	35.3353	7.61716	20.0381	-70.553	6
748	19.4954	9.07108	12.2929	62.5754	2
751	53.6148	16.7343	15.7039	114.133	2
755	13.2778	15.0453	11.9605	52.1976	1
756	31.422	12.5881	8.54066	75.5861	1
757	25.4626	17.9433	12.6046	-152.261	1
758	48.7702	17.8454	19.9694	-172.093	2
759	10.2824	16.2723	16.2238	107.825	4
762	11.176	11.4074	13.2881	43.3115	8
763	24.0433	11.8366	8.25143	61.3548	4
765	19.4361	22.1663	19.0957	-121.962	2
766	10.9306	16.288	10.5279	176.385	1
774	34.913	14.1321	24.8387	116.566	1
776	22.0943	18.5069	19.3124	140.788	1
777	46.5264	19.4145	19.6541	-92.7151	1
778	16.7356	15.8301	21.3325	123.934	1
779	22.9605	16.2124	9.53731	68.9363	1
783	45.0718	20.3347	19.4496	-146.293	6
787	11.6322	22.7381	13.0683	-47.5717	3
789	23.8152	19.944	25.0738	-110.369	1
792	16.7022	17.2008	13.2074	-10.7574	1
803	25.4756	20.3057	17.0734	-29.4253	1
805	27.9302	29.0301	10.2679	-43.2597	1
810	11.2882	26.4696	12.3128	45.0729	1
811	22.2916	10.3304	4.23501	-146.476	9
813	16.1506	11.9152	19.1292	-146.427	1
814	60.3739	23.9136	23.2951	-86.6377	2
821	17.6556	14.1214	20.5346	-162.063	2
824	12.132	21.3133	14.7726	-147.469	2
827	12.4533	10.6361	12.594	-146.527	1
828	18.6202	36.7238	11.4052	-68.014	1
829	54.2439	16.2475	4.65277	-103.442	2
832	21.3054	22.6734	23.7177	148.999	1
836	98.3045	21.2075	6.42218	124.346	1
841	14.4816	14.078	18.6652	-102.039	2
850	33.4487	19.6546	17.1964	126.929	1
852	36.5962	20.8538	19.7669	177.477	1
862	34.1995	18.1908	23.202	-13.3299	1
863	17.2823	7.46731	18.1083	-11.4456	2
864	48.3852	20.0367	17.6818	-25.8246	1
866	13.1262	10.23	8.38695	153.2	1
871	38.8145	13.0071	14.602	150.639	2
877	36.5694	9.22619	18.6441	-153.94	7
879	10.7356	28.5691	22.1285	-28.9888	1
883	27.1286	30.0805	17.5489	-91.3964	1
887	11.6514	6.59961	21.7137	102.552	3
892	18.5696	29.1345	10.706	0.564338	1
893	13.9262	11.4577	21.6334	95.4994	1
895	10.7525	19.9736	1.45582	73.3867	1
900	13.5938	27.1253	8.02986	43.4762	2
902	49.3055	31.2757	15.643	-96.0084	2
903	17.1112	43.4507	2.89212	153.857	1
904	21.2414	13.8986	12.8059	-75.5569	5
907	15.0294	16.4034	5.55985	44.5158	2
908	24.9343	17.1079	16.0455	99.7183	5
914	12.1801	16.9155	18.047	-96.8205	1
918	18.1061	19.2482	16.5676	-172.79	1
922	20.5688	11.234	7.12388	-52.5433	3
923	18.4195	28.9059	18.2461	54.3486	1
925	10.2819	25.3251	12.4264	0.920326	1
926	30.8955	30.412	17.1933	-142.582	1
929	79.3959	43.4791	13.2533	31.6385	2
931	10.1917	6.5165	15.2661	4.10127	1
934	11.112	15.2759	24.7324	-153.929	1
939	11.6138	17.7945	14.6036	88.0373	3
940	78.4015	33.296	14.4239	-96.7621	1
941	20.9894	4.47766	14.8389	-150.726	11
951	12.8828	21.1723	21.322	146.591	2
954	13.8648	18.2062	15.5541	-149.573	1
958	25.5336	19.5418	7.9919	-158.85	2
959	17.6684	21.4329	10.0019	21.6405	1
960	12.3064	16.4368	24.1438	-20.6862	1
961	24.2615	24.202	14.8573	-18.2058	1
965	15.4869	32.4786	22.755	44.9641	2
968	19.1905	24.1543	24.2395	-82.949	1
969	25.4054	22.7719	19.7699	57.3079	2
972	11.5882	29.7524	17.9184	161.051	1
976	72.7606	17.1345	24.3615	5.80699	8
977	18.2262	39.0837	18.799	-53.5855	1
978	10.3062	13.5233	19.5525	-18.7991	1
980	13.8634	7.9298	20.2462	134.734	4
994	14.5652	17.3085	10.0462	128.055	1
995	14.5406	23.1832	7.54096	-175.598	2
997	14.7753	21.8917	13.6018	34.4697	1
998	22.0167	21.5903	11.7428	11.6257	1
1000	32.5036	22.9998	21.1817	179.91	1
1007	17.6648	16.6866	12.7213	37.4331	1
1015	18.2669	27.1536	11.7535	166.191	1
1019	16.0646	21.2117	19.6627	-151.807	1
1027	10.417	16.7933	22.916	67.7453	1
1029	14.1234	17.5855	17.7425	-56.2018	1
1033	20.0996	18.2717	23.9253	102.548	3
1041	19.9834	18.6087	5.33678	110.988	1
1044	17.1945	17.3766	16.7512	-130.083	1
1046	26.9772	23.7004	11.5453	-105.665	1
1047	19.0057	17.3526	22.1261	-48.8699	2
1049	24.9389	14.4959	23.527	-133.3	4
1051	11.18	15.8476	16.5824	-21.4657	1
1052	15.4153	28.4968	7.73022	176.062	1
1055	50.1383	10.2958	25.7931	-106.945	5
1057	43.7776	22.4778	7.00059	-86.8447	1
1059	11.7659	12.4891	17.6732	-159.761	2
1061	22.0098	26.0236	21.8148	-86.8223	1
1064	10.6063	23.3521	7.84504	-55.8972	1
1068	40.7815	17.8169	22.1118	79.7875	2
1079	32.4487	11.9124	24.4832	89.2796	4
1080	11.0029	18.5458	15.2755	-81.4486	1
1081	10.9413	13.9447	5.82494	108.436	1
1086	16.4415	17.0049	13.7381	104.269	2
1087	17.9149	19.1879	17.7539	155.842	1
1088	32.1395	18.5605	25.0227	153.74	1
1090	23.8703	33.3484	16.9279	-3.40458	1
1093	41.9513	29.3888	23.205	144.778	1
1094	39.4857	12.4463	24.1149	82.6203	10
1095	24.2987	18.2825	24.9553	100.878	1
1096	55.9101	25.7747	23.591	-113.161	2
1103	34.5069	22.0602	23.7188	6.09332	1
1104	12.1455	17.076	24.1436	-21.6675	1
1106	36.8612	11.8585	22.6744	-123.799	2
1109	16.0714	14.2621	22.0892	110.805	2
1115	13.1978	18.568	18.8722	-83.7627	1
1117	24.1384	13.2597	10.1812	-167.793	2
1120	11.4605	20.3448	0.416042	-125.205	1
1122	48.3604	12.3808	5.64966	-26.342	2
1129	17.6711	10.7767	15.0048	-92.3666	1
1130	54.3772	27.3161	10.8762	-91.7097	10
1133	13.4314	26.1303	17.4871	83.3799	3
1135	42.6788	21.4452	17.7456	178.482	1
1139	15.4824	13.7414	22.5912	-65.802	5
1141	15.9989	19.7593	20.9027	-142.938	1
1143	25.2867	9.17709	13.327	56.5314	3
1144	10.3948	17.3213	16.5941	-132.253	1
1146	26.1373	19.7738	7.76309	61.4706	1
1147	11.8202	35.7362	19.7992	-172.353	1
1152	15.299	32.6913	12.2702	36.3567	3
1155	32.3965	19.3891	18.8084	-115.669	2
1156	48.8628	22.4438	22.2022	98.3757	3
1161	11.1718	20.644	12.6536	104.945	2
1164	13.7302	15.6112	24.006	5.89194	1
1166	19.7938	12.3345	12.349	25.5667	1
1169	11.3625	17.1243	4.16481	178.372	1
1177	11.231	13.432	23.7177	-157.218	1
1181	12.1591	12.3414	14.752	147.383	2
1183	25.0596	23.9401	24.2881	106.508	1
1185	23.5296	17.0512	18.4162	-95.5433	1
1186	10.5543	35.9745	15.3214	166.979	1
1190	13.9196	11.3554	11.1046	46.0421	2
1191	30.3762	14.0241	22.7572	140.755	1
1192	37.7533	17.4077	19.9948	124.541	1
1198	33.9638	13.1649	15.1254	-31.3794	1
1199	25.5728	10.9115	23.9981	116.934	1
1200	35.4631	23.8391	23.6029	-94.5031	1
1201	37.5849	12.3812	17.4973	107.895	2
1202	34.3177	20.9035	20.0979	-31.1618	2
1204	29.9314	29.5424	10.9516	-110.616	1
1206	11.5951	27.2207	17.034	-47.2154	1
1215	14.3057	21.4456	3.6403	-116.739	1
1218	13.5886	21.5204	11.2951	-122.555	2
1220	28.6345	18.9849	15.4	-145.617	1
1223	51.2458	17.3275	21.4158	-26.6063	4
1224	32.4319	22.8182	10.7653	-166.802	2
1228	10.9712	16.0521	24.601	-28.2062	1
1229	16.0346	21.2421	4.32149	-150.653	1
1231	21.7972	12.2763	20.6959	-154.665	3
1235	27.1445	10.7012	21.9265	-96.7334	5
1237	24.569	27.2006	7.68954	70.0127	1
1240	24.1091	19.2539	24.9071	-108.023	1
1243	19.0169	15.9284	12.1129	-31.1333	1
1251	10.7823	13.8184	19.2479	-41.1321	1
1255	33.4171	25.7099	8.79516	131.113	2
1256	62.2614	13.5072	19.2101	-59.1986	1
1257	21.2122	33.7874	23.2846	-35.7097	1
1261	12.3875	13.474	12.4526	-18.568	2
1262	10.4131	11.552	22.1284	142.215	1
1263	25.0612	22.3043	14.9946	-126.526	1
1265	58.2398	35.173	13.2399	-35.549	3
1266	10.0083	36.8822	8.72115	31.2247	1
1267	48.3275	19.0698	21.9579	-11.9549	1
1268	24.3765	28.3908	8.3209	56.1533	1
1270	17.749	31.9139	24.9006	-117.105	1
1272	36.6932	15.2776	16.6893	16.5853	1
1278	23.8568	15.5913	18.7772	-37.4448	9
1280	66.1841	21.751	14.0471	-53.9667	1
1284	15.9804	24.1758	14.9448	-80.1663	2
1285	46.6891	19.0836	4.01132	-177.655	4
1290	32.3783	27.4	23.6496	-174.829	1
1293	10.1468	20.2082	9.29631	-45.0273	1
1294	36.4355	23.2278	10.5161	106.607	4
1299	13.521	14.6114	16.28	-102.444	3
1301	36.4833	23.9612	2.75947	160.837	1
1303	25.6461	15.9439	23.8503	114.504	1
1305	10.9917	56.6501	22.0838	81.3785	1
1306	13.6416	17.5203	1.70105	-166.819	1
1307	22.5628	15.6343	23.4457	-7.53252	1
1314	24.461	30.8932	11.6691	-172.01	1
1323	13.9101	17.0105	21.333	162.735	1
1324	19.2321	19.9328	13.4487	-131.793	1
1329	18.0503	16.8616	21.4856	-139.252	1
1330	28.7748	13.2948	11.5436	-51.7866	1
1332	23.3779	17.1226	15.1195	3.27522	2
1337	22.085	13.4294	14.086	-78.2402	2
1339	33.7602	21.7684	18.5929	99.4436	1
1340	23.9215	19.4505	20.5638	26.4495	1
1341	12.6386	14.9403	17.5339	-146.504	1
1345	91.9811	8.84081	21.4251	22.4901	13
1348	15.881	22.2623	22.5569	-35.4581	1
1349	60.4154	16.9306	17.9266	27.9367	1
1350	26.0047	21.6372	23.9295	78.0934	1
1351	15.4404	13.614	24.9002	54.9831	1
1353	13.3276	5.55115	17.689	3.12596	4
1358	29.3863	11.3343	21.7327	127.466	2
1359	40.8078	30.4107	20.8901	47.6374	1
1361	28.3757	40.3632	12.7361	-57.5044	3
1367	28.7837	10.5348	7.55117	-167.188	5
1368	47.0386	15.1865	19.8165	161.844	2
1373	13.2727	20.8205	12.4852	112.276	1
1378	17.2555	13.2411	25.0611	113.622	1
1380	37.1413	22.9018	4.32567	-140.876	1
1381	12.2678	14.7172	15.5116	110.827	1
1384	22.4757	19.6308	19.6211	125.755	1
1387	26.2317	11.8526	11.6867	83.7293	3
1390	16.9468	21.1766	25.7217	37.145	1
1393	64.9715	33.4022	18.397	62.1161	1
1398	38.8255	25.228	11.7881	-175.456	9
1403	11.0635	25.7657	16.8224	144.639	1
1409	15.4302	18.7977	23.108	94.5738	1
1410	27.4817	45.0093	21.0726	143.594	1
1414	16.7155	20.5234	16.8328	82.7107	1
1416	19.0939	23.0417	13.9577	-43.7999	1
1417	34.4261	17.3271	15.8438	-121.086	2
1419	12.4733	25.5814	24.2428	94.4741	1
1424	12.2504	9.27794	3.24482	-30.1329	8
1425	28.9599	19.7289	23.6663	121.696	2
1426	61.0807	20.5524	1.5124	43.7692	9
1430	32.6162	13.9698	21.1609	-160.265	2
1432	31.4629	20.5607	23.3065	162.092	1
1434	16.0481	10.5679	9.08572	-166.637	2
1435	12.4837	11.1351	25.7306	-25.299	1
1439	19.3922	24.4287	2.49891	64.9221	1
1440	18.9648	37.1131	9.44867	22.6693	1
1446	97.0838	7.69564	14.2177	-97.726	13
1450	12.7407	18.1011	24.0838	23.633	3
1452	10.7377	14.8719	9.79467	-105.54	1
1455	17.4074	19.8315	22.5945	-137.662	2
1460	41.2427	18.4154	21.9504	-121.214	1
1465	27.6069	16.1826	14.3101	-127.949	1
1466	12.025	12.1957	14.0712	122.823	1
1468	15.7258	20.5001	12.9895	101.353	1
1471	10.0638	23.6632	11.399	-34.631	1
1473	33.8024	37.9739	18.3102	176.367	1
1475	10.2967	28.6152	18.8308	52.8256	1
1476	10.8367	13.9015	14.4043	-79.4543	1
1477	13.3121	7.67952	12.6559	57.7643	1
1479	28.6558	19.6972	3.06748	-159.243	4
1480	30.8485	26.5328	24.3255	-55.7681	1
1481	50.9886	20.6663	25.2203	114.404	1
1482	11.6328	30.9593	2.8973	59.5152	1
1486	28.4469	10.6531	23.4874	-31.1944	12
1493	61.4476	13.1762	25.0541	11.7213	6
1496	14.0551	12.8495	12.1847	-176.359	2
1503	55.5955	39.8117	6.89777	60.689	4
1507	26.2213	17.129	11.0771	-14.6459	3
1516	30.1142	28.331	22.5128	-89.0371	1
1517	14.4311	16.6109	24.9832	160.987	1
1518	15.3508	14.1177	14.2818	-6.10677	1
1521	13.3025	25.4983	21.8064	81.3911	1
1526	10.4237	19.2575	21.9024	-17.2784	1
1534	15.8244	27.7308	17.4442	-84.4774	1
1535	15.9746	7.89981	22.4042	-128.356	2
1536	48.2563	24.9884	23.9845	58.0551	1
1537	13.7401	15.5721	20.6174	-113.335	1
1541	12.3134	36.8466	24.4514	-107.334	1
1548	21.5873	14.5916	11.7481	58.3258	1
1551	96.0045	14.0813	19.1728	-89.6366	4
1554	30.1516	19.2623	20.6041	-46.4185	1
1556	15.9485	14.9138	19.0933	94.2011	1
1559	24.3715	21.166	25.6072	-158.198	1
1562	29.5372	16.3405	25.7612	142.457	1
1565	10.3084	45.6337	8.53351	67.0234	1
1566	10.4665	38.8894	12.7197	-117.688	2
1568	15.7433	12.1061	24.4078	-49.4349	2
1575	20.9972	16.9354	20.3357	-0.762521	2
1578	12.6338	55.159	23.7837	-167.347	1
1579	23.9171	15.1657	6.6861	35.2972	5
1584	19.0519	19.6805	17.2697	153.61	1
1587	17.2754	14.4563	11.7044	116.419	1
1604	27.7815	15.5105	17.01	84.9991	2
1605	15.2825	41.7303	20.6245	29.7775	1
1610	16.6703	26.8554	16.9046	-35.952	1
1612	27.932	15.712	10.9433	-154.495	1
1613	16.9283	13.568	24.8344	38.1415	1
1614	12.3096	23.6776	20.0502	5.01329	1
1619	77.2988	25.5681	25.0639	-76.796	1
1620	15.212	21.2261	6.64191	174.53	1
1623	23.2158	13.9556	24.9398	-136.636	4
1626	22.5593	18.8747	19.4503	-133.582	1
1627	10.3986	14.5702	24.1872	-158.959	1
1628	25.745	36.2621	4.80098	-106.597	1
1632	68.2023	12.4689	11.8067	173.806	11
1633	18.4317	14.0629	17.7833	-168.743	1
1634	28.3281	10.1955	25.7589	-27.8284	3
1639	50.3028	30.0629	8.65974	-28.3078	1
1641	49.4243	9.26061	24.8223	71.7356	1
1643	13.8009	12.7489	15.5066	42.3153	2
1651	15.0131	25.8329	15.892	26.8823	1
1654	81.9328	15.0253	14.9598	-165.587	6
1655	14.5753	19.4368	14.6734	138.019	2
1659	12.5637	16.6514	17.148	-143.818	1
1661	11.3124	28.5586	8.98511	-19.4758	1
1662	26.345	17.872	24.7887	154.734	1
1665	20.3807	15.5154	20.9688	-103.593	1
1666	38.8826	23.7851	6.21498	31.2711	1
1676	36.4556	20.3969	6.09659	117.093	1
1678	26.5038	41.184	16.6945	-28.2852	1
1681	25.595	10.0827	6.77722	-123.16	3
1683	52.3863	20.7462	10.0621	-52.3144	3
1687	17.7187	29.9196	23.9522	-1.22947	1
1694	38.1763	19.5617	16.7562	-89.0019	1
1698	40.041	25.9791	2.25275	-75.8434	3
1708	23.9458	22.8786	23.1866	24.08	1
1709	58.5919	22.7361	25.4291	176.652	1
1711	44.3791	11.5971	21.8904	48.4526	1
1712	14.0324	28.5457	17.7121	-53.9676	1
1713	10.4036	12.7595	22.8459	90.2126	6
1716	29.1043	12.1074	19.6747	109.904	1
1718	25.4196	14.6628	19.1427	-18.5411	2
1720	22.7261	8.64495	24.6667	164.761	6
1721	24.6344	23.4943	16.9372	146.432	4
1722	30.2931	21.0688	24.5495	-1.15809	1
1724	18.3096	15.4904	13.0172	167.611	1
1725	91.9184	18.0829	13.4785	-68.305	13
1727	39.5536	19.6759	13.7849	101.403	1
1729	34.2993	16.5916	14.0948	166.145	1
1731	24.163	13.2328	21.8211	-97.9357	1
1734	16.9729	7.30668	19.0277	127.62	2
1736	50.6796	17.307	23.3744	98.4385	1
1744	16.2124	19.3588	19.7768	15.6635	1
1748	22.3441	11.8659	18.3494	85.1445	1
1752	23.6939	16.4664	13.9941	-139.399	2
1755	18.4599	20.111	21.9805	-123.772	4
1761	15.8545	17.3029	18.6787	-154.344	1
1762	42.1259	17.5471	25.2645	107.07	3
1767	82.3792	22.6785	17.5273	155.998	4
1769	44.7218	13.3559	20.5888	19.6289	2
1771	13.3303	26.995	9.12433	97.0474	1
1776	10.1969	19.3265	18.9117	-54.8458	2
1777	27.3681	18.5238	20.1702	155.692	1
1779	39.4367	23.3414	9.88195	55.2995	2
1781	35.1559	30.4666	22.0203	110.652	2
1788	16.6721	18.3126	20.4224	-1.66767	1
1794	14.085	20.0061	18.2796	168.913	1
1795	17.9523	19.6817	9.65836	112.215	1
1796	14.3189	18.1067	4.79223	91.1946	3
1799	20.434	21.2122	24.4955	-76.7677	1
1800	30.6309	29.0081	22.625	170.072	1
1802	10.0016	16.8254	16.8941	73.0194	1
1804	34.1441	31.2796	21.2012	60.0718	3
1808	29.0116	26.9436	4.65673	-139.39	1
1809	12.9809	12.6385	22.3215	-94.2755	1
1810	83.3651	20.3939	18.302	-164.909	8
1811	17.3061	20.1157	16.6853	-67.3967	1
1815	10.6432	18.1118	21.8855	-167.823	1
1823	34.545	27.1534	7.96837	124.876	1
1827	17.0075	16.8914	17.2347	107.995	1
1830	23.3411	15.0746	24.682	-10.7358	1
1831	89.1529	26.7881	24.0145	178.285	2
1837	42.013	42.7279	10.4657	-16.4542	4
1843	24.595	18.0302	20.5424	-29.1954	2
1844	25.6793	16.4175	20.7414	-101.62	1
1846	17.3471	21.185	5.20656	-108.549	1
1847	32.9867	9.51128	17.7375	68.4623	1
1848	40.7574	20.0527	5.2115	65.7967	1
1852	37.1952	15.9931	15.7843	103.682	1
1854	11.0466	17.8726	21.6447	-104.547	2
1859	23.5014	24.2321	22.4801	-133.493	2
1864	18.3191	24.5361	22.792	80.4802	1
1867	15.4345	18.1772	24.482	142.397	1
1873	12.2182	20.8627	22.6239	-33.0678	1
1875	23.3104	21.6461	12.1941	-100.585	1
1881	43.4574	14.6857	16.6565	34.6833	2
1886	11.0697	24.5986	4.79334	-136.616	1
1887	16.4381	20.7795	15.9515	36.994	1
1890	19.8793	31.7781	5.27834	-94.5888	4
1892	27.4134	15.5709	22.4263	139.979	4
1893	10.7546	33.2222	20.1382	-109.232	1
1895	13.1711	26.2879	16.8483	111.546	1
1897	51.138	16.7254	5.81437	98.968	1
1898	11.7792	5.32438	16.6267	-12.1064	2
1903	19.0918	21.6632	17.889	133.647	1
1906	61.2823	10.9941	18.707	142.99	4
1909	23.5527	33.4154	22.1999	7.54913	1
1917	16.4307	23.6769	23.6906	119.794	1
1919	58.4672	50.2775	17.8474	56.7337	1
1922	20.4512	18.8632	22.8785	-137.701	1
1924	14.4949	24.6276	23.1815	22.4787	1
1927	27.8835	15.3404	21.572	-88.2561	1
1929	13.5723	12.2396	20.1724	-179.23	1
1932	20.4192	40.0484	11.0416	61.827	1
1937	40.8967	17.377	24.8495	126.17	1
1938	28.2125	21.6854	25.5355	67.9646	4
1945	46.8368	12.8272	14.9048	-126.071	1
1947	12.0516	21.5264	17.0615	78.2012	1
1952	27.9898	16.1195	15.8225	51.6812	3
1953	10.8716	24.9655	18.6892	50.6514	1
1957	14.6151	28.6219	14.4626	-127.133	2
1962	11.2099	11.7344	24.7363	179.209	1
1963	44.3499	24.2589	24.4685	87.0879	2
1965	21.2421	22.089	22.8633	-108.257	1
1966	88.5982	25.4869	10.6903	-115.924	1
1967	34.5153	12.7166	14.7098	135.312	2
1974	48.9197	22.1375	16.6045	-6.60284	2
1980	85.7983	31.7493	9.56551	-12.1704	2
1984	43.4888	14.1855	17.0514	-110.161	2
1992	38.616	15.4967	19.8281	-42.2559	5
1997	10.6853	10.5581	20.973	-41.2966	1
1998	18.6628	6.42685	10.3931	153.732	10
2002	59.8136	19.4045	17.093	176.679	3
2003	34.051	23.3306	19.6126	1.98616	2
2005	19.8645	14.9561	24.498	165.989	1
2011	22.9739	15.7861	25.0138	82.7012	3
2014	29.2481	10.6499	20.0679	-40.0006	2
2021	51.5799	14.9729	15.8936	112.395	4
2023	38.655	17.6041	23.5621	88.5386	1
2027	16.9913	16.6196	19.7503	-82.9443	1
2029	18.1783	20.0231	11.4576	141.015	1
2033	12.1377	18.7683	22.4125	42.7262	1
2034	40.0351	27.3442	23.8375	-15.2299	1
2035	24.5533	17.1318	8.3269	173.379	2
2036	23.4357	25.4114	24.0043	114.071	1
2040	22.5676	29.1513	24.0252	-165.694	2
2043	30.6743	15.7627	13.1796	21.7965	2
2044	31.9127	7.46204	23.9079	168.297	3
2045	64.4078	18.2449	8.64737	112.558	3
2046	44.1267	17.0935	9.54317	-13.0133	1
2047	17.2211	16.461	20.4473	29.4566	1
2050	17.7533	16.5391	20.6009	-169.759	1
2051	15.6384	16.8829	16.1092	92.2399	1
2052	15.7197	27.8349	1.0621	70.1251	1
2053	21.5475	20.4834	16.8278	-157.847	3
2054	68.6149	22.0115	23.1172	-65.6689	1
2057	24.4235	21.3604	18.2265	38.9249	1
2058	49.2727	22.5333	22.3313	-168.256	2
2059	32.3373	33.1066	17.3736	-136.474	1
2061	10.485	14.383	17.937	-161.973	1
2062	21.0714	9.91368	19.05	8.11046	3
2063	12.4147	26.2687	9.38214	-1.89272	1
2066	15.7665	22.8652	24.2353	-128.954	1
2069	12.4654	22.013	19.5325	-169.607	1
2073	42.6452	23.5032	25.2749	-122.557	1
2078	32.5439	17.8799	10.7492	-158.389	1
2079	12.2619	12.543	23.4101	-147.664	2
2081	12.1495	13.5403	25.7629	4.49951	1
2088	14.2307	26.2988	17.7463	142.284	3
2093	39.8644	13.2287	19.3456	156.88	1
2094	49.2621	18.0721	8.50616	-3.89861	5
2096	28.146	15.3648	23.4551	-111.955	2
2097	15.6053	16.8953	22.4637	-15.9831	1
2100	22.7626	20.4584	25.5644	118.435	1
2102	14.5612	15.3557	23.9361	-134.768	1
2105	69.6884	19.0579	23.1044	-156.256	1
2107	11.4382	13.9655	20.8694	13.1414	7
2110	13.3915	16.4808	19.2775	69.6681	1
2111	16.0161	12.5749	11.2025	115.463	1
2119	25.72	22.0857	24.9627	-130.495	1
2120	41.5065	18.4204	19.215	-101.628	1
2121	15.5117	20.3089	19.8414	173.076	2
2130	16.4976	18.2798	17.7568	-71.309	1
2134	19.0134	13.7135	16.1983	7.33426	1
2137	13.3946	15.9938	21.7555	35.5783	3
2138	12.2482	14.2095	14.3771	101.471	1
2144	51.5387	22.1152	21.2493	102.229	2
2146	17.3436	13.82	19.2089	77.0499	1
2151	44.5373	30.682	20.7525	-42.6364	1
2153	37.9659	42.2479	12.7566	-21.9237	2
2157	20.5244	24.3254	17.295	-91.2999	2
2162	34.4353	16.9037	3.74155	-142.674	2
2165	14.6583	15.5551	18.8451	2.30884	1
2167	19.0486	8.4981	14.824	-122.416	1
2168	30.7292	32.5883	24.72	4.90818	1
2169	15.4478	30.6119	23.2082	-27.2498	1
2170	19.641	31.9936	23.182	-114.349	3
2171	71.7344	23.659	14.4938	-173.627	6
2183	52.4367	13.375	24.342	121.501	7
2184	21.943	14.1952	4.52331	-50.038	11
2190	35.9581	16.7321	25.4312	60.6171	2
2192	10.6826	11.7495	11.2022	-32.5446	1
2193	20.0291	28.1984	13.2891	-17.3508	4
2198	28.646	26.8993	15.78	176.061	3
2200	25.3304	9.71487	21.127	22.7795	3
2201	30.2815	12.4501	23.6538	-148.926	1
2212	49.8641	20.4866	17.8877	31.1852	1
2222	11.1448	13.3068	13.6022	84.4769	2
2224	17.7195	22.3451	23.0516	-90.9828	1
2226	16.4136	23.9341	22.5437	-155.358	1
2229	31.2899	13.4712	18.088	-141.153	2
2230	23.1	15.614	7.50266	23.8257	6
2234	12.8523	16.892	14.6272	77.1586	4
2236	10.4681	31.5595	23.0758	59.4032	1
2237	18.9577	10.6398	14.5114	135.472	1
2238	20.5992	18.5981	19.0707	48.8235	6
2239	35.3311	24.6032	22.8193	-131.206	2
2248	25.1242	20.6302	18.7042	-24.4516	1
2251	11.2101	9.19825	11.7211	-70.7573	2
2255	84.112	11.789	13.5843	169.1	2
2257	27.7534	25.9225	11.936	132.457	1
2263	25.7884	24.6593	20.6175	127.734	1
2264	13.5896	10.6274	15.5829	80.3994	1
2266	40.8872	9.26941	13.7953	-20.2938	1
2269	42.3757	11.5501	25.4298	152.757	1
2271	17.3935	22.7497	6.97855	62.2968	1
2273	13.1017	14.2628	15.8441	-43.3081	1
2274	23.9047	31.8783	18.4123	148.973	1
2280	92.7651	14.5473	19.0989	-132.87	5
2281	37.6398	15.8087	8.32785	-166.909	2
2283	13.8939	15.4506	25.2419	-155.258	1
2286	16.9689	15.4544	21.3884	-128.814	1
2287	16.4946	24.8227	24.1652	11.7935	2
2288	20.7444	15.225	23.8332	126.958	1
2292	10.8441	38.3416	10.2205	171.743	1
2296	12.1798	20.4401	17.4476	84.1528	1
2298	72.3128	28.2115	25.6826	111.388	6
2301	45.0376	15.5612	20.4304	-60.6293	1
2303	35.2372	11.0613	20.2694	76.4566	1
2305	27.948	21.9618	25.0488	-138.797	1
2308	57.4664	27.2906	24.5482	-22.7971	1
2311	64.6694	11.8992	9.72033	140.381	7
2315	28.4386	26.4935	4.11553	147.458	1
2316	22.7666	11.828	13.7797	-80.7708	4
2317	20.9057	33.7824	9.577	-173.347	1
2320	80.4105	18.4428	8.45977	73.3035	3
2322	23.4492	14.3352	9.73278	-24.957	2
2323	22.9383	18.2558	16.7165	66.1297	1
2324	54.39	5.72959	17.935	-170.109	34
2326	15.6398	28.9016	19.0447	-164.748	1
2332	21.1569	15.3614	8.62345	-74.9702	3
2343	44.4133	20.8249	4.97791	17.2603	1
2348	44.7531	22.7305	19.2661	-45.0442	2
2350	10.1749	17.9269	13.1403	93.5886	1
2352	11.1206	12.7314	17.6498	-54.3999	1
2355	79.7225	23.0097	13.7995	52.9906	3
2358	30.0644	25.941	12.1652	-12.0541	2
2360	13.6745	11.4133	22.1843	31.3133	1
2362	24.3298	11.2423	22.0065	-38.7986	1
2366	26.9435	29.6437	21.0678	-105.692	1
2368	29.4653	17.3577	24.4403	-136.537	1
2372	43.8129	16.3994	1.72442	126.993	1
2373	17.0316	12.301	18.2027	11.5768	1
2376	75.4809	27.7984	16.7234	124.473	4
2382	48.6802	9.75799	25.3837	144.358	9
2386	31.5806	27.9296	16.0669	-128.273	2
2396	11.7544	20.2815	11.4429	101.392	1
2397	21.8363	21.6124	14.7239	-28.8426	1
2398	54.799	15.6475	23.3502	-176.871	6
2406	14.2046	14.6477	24.6399	79.9949	1
2407	18.4691	26.4475	8.12385	-22.064	1
2415	20.4293	16.2634	25.4094	-18.3596	1
2423	89.6826	27.3806	17.2953	-51.5882	3
2425	23.6401	7.42428	25.2834	-97.1717	5
2427	10.8927	12.7868	6.50132	-61.6655	1
2428	21.6873	16.0565	19.8513	-105.495	1
2429	18.9466	25.6578	23.516	-5.3065	2
2430	15.8158	20.6151	18.4216	-60.4387	1
2432	30.5191	13.2653	19.8092	-111.839	2
2434	15.8315	31.6816	16.4697	169.132	1
2435	16.1555	50.2106	19.7315	148.504	1
2442	29.6791	61.6096	17.8042	-54.8991	1
2444	12.4557	12.3382	19.6412	65.9696	1
2453	72.3812	30.0637	11.177	124.653	2
2454	23.0883	26.1982	21.5503	-129.99	1
2455	14.6606	21.015	15.7436	-4.2386	1
2456	11.961	14.836	25.4853	75.1934	1
2457	42.5122	23.4748	24.0969	43.6137	1
2461	12.7868	15.6203	21.8533	-59.3134	1
2464	40.2042	23.8433	13.7126	-144.308	1
2467	19.1608	16.0078	6.71641	104.878	1
2475	28.4618	23.66	22.641	10.729	3
2477	21.2946	11.0263	20.7838	-164.435	2
2478	10.7802	23.6927	23.6882	152.572	1
2481	37.7417	11.5971	5.72496	-159.636	2
2484	77.1713	19.3814	24.1954	115.997	2
2488	10.5487	20.5625	8.60524	-27.5522	1
2489	89.4287	13.8795	6.49692	-23.6948	8
2497	53.6275	25.7394	8.5219	179.553	3
2498	28.8715	20.9369	17.2353	136.126	2
2504	20.8316	21.8068	8.38959	137.27	1
2505	56.5672	15.2635	22.8305	133.05	1
2508	11.501	22.9373	23.1782	21.1152	1
2509	31.2753	16.8922	15.6974	-19.8675	1
2510	20.5468	35.1584	25.2441	148.152	1
2514	25.9174	12.1076	14.4957	-154.928	6
2525	15.041	6.91704	18.2671	83.6824	4
2528	26.8998	14.069	6.82705	-114.636	1
2530	10.325	17.9533	25.3199	164.46	1
2531	20.2606	20.4028	15.9881	103.871	4
2535	44.0434	14.3715	12.2021	137.034	3
2538	22.5232	24.2237	17.6796	134.841	1
2540	19.3412	32.097	23.3039	-66.1247	2
2542	56.5398	13.1782	16.1655	-82.4952	5
2545	50.8614	24.9205	25.5162	26.7846	1
2547	25.9131	14.3878	17.6703	157.798	2
2548	10.3268	20.0182	25.1645	-129.717	1
2549	17.3521	15.7697	16.8389	-13.8539	2
2550	12.0143	25.1182	23.5049	75.7048	1
2552	22.177	19.1022	22.8492	47.9961	1
2553	37.9656	36.7802	8.63197	-94.9768	2
2556	89.9636	16.6919	20.6257	34.8392	9
2558	33.9909	23.4699	3.57323	55.7974	2
2568	19.1927	16.7858	17.1283	42.963	1
2569	50.1274	20.9753	16.3228	60.2185	2
2571	37.5922	16.2393	20.909	-86.3038	1
2573	50.2884	15.5209	10.1416	-179.606	2
2576	13.8777	15.2884	12.2361	118.214	1
2582	18.9262	22.6894	21.9193	151.103	1
2587	44.9015	35.9084	2.84233	-69.4976	1
2589	15.4228	16.7182	23.1509	52.6048	1
2590	11.9015	16.8757	2.9076	99.1701	1
2600	97.8497	16.7971	12.5459	124.52	3
2609	14.0825	16.8866	16.4819	103.909	1
2611	18.3282	23.2512	23.665	74.4198	1
2615	26.8654	11.7813	16.9744	40.7544	4
2619	10.4123	15.6914	18.3014	63.3503	1
2621	31.7658	13.501	23.7318	-167.904	3
2623	11.3801	25.3994	23.4871	-61.27	1
2626	14.6551	14.3833	8.54058	-56.0017	1
2632	22.9046	12.1265	12.8229	58.7582	1
2633	14.4489	33.279	16.1453	-153.432	1
2634	10.39	12.4669	9.63249	35.0177	1
2653	26.9324	20.9661	12.1941	-118.947	1
2660	14.5471	36.8041	8.43259	-11.6553	2
2663	11.5694	14.3427	13.0749	72.2709	1
2678	35.0987	18.8996	11.5461	-80.6669	2
2681	14.7528	9.64733	12.1756	156.783	1
2683	12.6351	18.2242	8.97848	115.921	1
2685	48.6966	21.1084	15.0235	-33.0856	3
2686	35.942	11.0725	22.7385	-151.492	1
2687	43.1874	15.9043	19.6391	-102.422	3
2688	10.9331	16.4414	13.8516	-18.3473	1
2689	22.5793	14.1119	18.2227	109.239	1
2691	14.5741	14.9344	6.38968	-124.397	1
2693	18.692	24.4816	22.0592	19.7946	1
2696	12.6108	14.3037	11.2009	-161.979	2
2699	29.8573	18.0065	21.4282	174.427	1
2700	48.6785	16.8513	8.97229	-40.6066	6
2702	46.785	36.5724	19.6708	-114.057	1
2705	30.5123	17.976	12.835	-101.231	1
2707	16.6094	27.7942	25.5359	-169.413	1
2709	22.0559	12.4363	13.7282	76.835	1
2715	48.0133	18.7691	20.2196	-2.20141	1
2716	49.605	8.63712	23.7454	-178.085	9
2718	49.6755	18.6843	3.99623	80.0946	4
2719	18.512	15.8466	18.9921	-121.667	2
2720	10.5944	10.8499	12.0304	-150.447	1
2721	12.5944	16.8552	6.98342	150.416	1
2722	46.2902	18.326	22.7213	-67.317	2
2723	28.2057	31.6827	20.9599	78.2051	2
2730	22.3788	15.9746	21.6871	47.0933	2
2739	59.3242	38.9175	13.468	-140.985	5
2740	44.0876	20.4426	4.67131	137.305	2
2742	16.8223	12.1611	22.2429	74.9919	1
2751	83.2424	15.57	18.7842	-123.177	4
2752	16.4699	15.3569	14.2127	51.7552	2
2758	14.2247	8.94201	21.4816	-31.1815	2
2760	19.7236	41.2587	21.3786	11.6445	8
2762	18.6143	18.2809	25.7062	-169.395	1
2765	45.2914	21.5359	19.3261	36.3704	1
2766	11.0882	15.5768	18.1877	174.244	1
2769	55.9392	15.1203	5.83753	-104.932	4
2771	32.6257	31.282	15.0964	72.5694	1
2772	20.6307	11.8996	16.4718	143.28	1
2774	42.6098	19.3031	8.6713	-43.4978	2
2784	42.7865	14.6892	5.49659	-20.5828	1
2787	41.5824	16.7662	18.5429	-79.4075	1
2788	14.3369	22.8251	19.8945	95.595	5
2789	58.7223	26.8865	22.4643	106.338	2
2791	28.4863	25.8874	17.9182	-131.204	2
2792	50.8157	20.2982	6.45651	-22.2526	2
2795	19.4004	16.2798	23.3973	-160.369	1
2796	55.616	32.36	25.2324	-53.1831	2
2797	14.1234	15.7253	5.73043	103.531	1
2799	12.8968	12.552	12.3948	131.704	1
2803	15.6947	15.8724	17.7562	-109.885	1
2809	30.3268	19.258	22.0868	-54.7986	2
2810	41.0612	18.2721	17.9034	-39.4885	11
2811	12.4866	15.9	15.4729	62.4638	1
2812	14.24	27.64	9.0535	-136.737	1
2814	12.9075	23.4674	24.7014	-97.1054	1
2822	71.901	14.4066	17.7387	-160.925	3
2823	49.0784	17.7852	15.4816	-88.766	5
2829	51.6901	15.908	17.3839	-56.7331	3
2830	32.3864	27.9418	24.4705	-149.824	3
2831	72.049	14.8277	17.3769	-174.168	5
2832	11.8084	14.1745	6.72981	-44.0673	1
2835	13.6662	15.7217	4.75568	9.07651	2
2837	40.049	17.8862	14.9148	80.2607	2
2838	40.9724	26.9651	17.664	13.3671	2
2839	85.4996	16.5522	16.691	106.609	4
2840	11.5535	24.2641	23.5072	-118.012	1
2842	22.6826	13.5011	16.3507	-176.065	1
2853	35.4123	16.2036	21.3276	5.31292	1
2854	36.4238	14.6419	15.9795	131.173	1
2862	13.4833	17.2257	19.1712	-58.1437	1
2866	26.092	17.8671	15.7758	175.262	5
2868	23.7012	24.9513	2.22456	14.4245	1
2871	15.5139	15.0221	21.1685	114.689	2
2878	38.3683	16.6562	20.9873	-122.959	1
2883	16.7172	20.1506	19.9412	-161.814	1
2886	35.8267	16.6663	25.6748	-127.162	1
2887	35.7323	16.5332	4.19337	104.357	1
2890	16.1955	17.5944	14.0605	-36.7869	1
2892	15.7783	7.6988	18.8025	113.249	3
2900	16.5849	18.8476	13.9196	-116.175	4
2903	11.9302	13.1382	10.1887	116.969	2
2904	77.9691	26.0192	23.9295	-34.4965	5
2907	11.2013	15.5626	7.11335	-172.537	1
2911	23.2837	21.4611	24.9142	-13.7866	1
2912	28.5538	28.9348	9.69188	-34.5955	1
2920	13.2931	30.2607	11.4438	22.7727	1
2923	10.2165	17.9108	14.9954	-9.49341	1
2924	14.9069	13.3114	19.2225	-36.722	1
2925	14.2805	30.4917	18.8904	54.9598	3
2926	24.9155	34.7961	20.4151	6.96132	1
2932	12.0003	11.3379	19.6284	-55.3115	1
2934	10.2639	29.1238	23.8162	-138.624	1
2941	26.8418	13.0995	21.3164	-70.2219	1
2944	14.1636	13.6348	11.9723	-49.5047	1
2948	18.927	25.9007	23.1943	163.668	1
2949	43.1964	9.88258	7.67606	-121.462	7
2950	13.6651	25.8738	17.1862	134.898	1
2953	14.7623	23.0268	4.41399	49.5544	1
2956	19.1762	6.28992	3.31435	143.698	1
2959	24.9492	19.4388	23.2047	162.759	1
2961	59.6568	30.1066	12.8663	176.754	1
2965	19.4853	10.3388	25.0411	-74.3809	2
2968	13.7691	8.62496	7.17427	-25.062	2
2971	21.5876	22.7849	4.0921	-14.0104	1
2972	49.1983	27.1861	25.7384	46.3453	2
2973	65.8892	20.4025	25.6705	18.7331	3
2975	30.6682	20.9732	7.2617	119.979	1
2978	21.0598	20.0221	20.6136	-72.9926	1
2979	53.1682	37.6051	25.4645	96.5282	1
2981	18.0329	19.6344	7.79923	58.5364	1
2983	18.3553	17.7445	8.38391	-100.109	1
2988	14.6014	21.5179	6.32087	-33.3124	1
2991	59.9645	16.4925	15.6415	128.059	1
2992	21.0919	5.43162	10.3825	46.1047	5
2997	15.4191	19.4245	14.3033	79.0125	2
3002	17.848	15.0214	23.2554	-106.619	1
3008	13.1048	25.2608	10.0152	44.8319	1
3010	41.8017	10.9916	19.8551	19.7484	2
3011	27.531	27.5887	10.4626	82.4829	4
3014	12.711	29.7143	19.9795	-132.47	1
3019	99.515	19.0274	25.6574	124.774	3
3025	14.4966	23.554	9.93433	107.971	1
3031	23.6217	25.4326	15.8028	136.478	1
3035	16.7949	18.6565	15.5609	27.0949	1
3041	40.7073	39.8629	16.8887	-0.290718	1
3045	24.4786	25.0718	20.8243	-8.51223	1
3048	17.0603	22.2192	24.5808	175.798	1
3052	34.1276	18.3825	15.3563	9.20013	1
3053	14.4394	31.9479	24.9194	-169.181	1
3055	25.774	18.5842	16.7318	-11.7933	3
3056	14.7022	30.1585	20.1344	166.379	1
3057	20.5145	33.7155	17.0361	175.594	1
3061	15.2249	21.9692	21.0121	57.4206	1
3072	20.2542	14.2046	18.5839	56.1396	2
3075	19.2303	21.3965	3.21802	-152.526	1
3077	18.6194	8.05934	3.94052	-126.096	2
3079	17.3896	25.7758	20.5709	-91.0329	1
3082	19.6036	11.7937	18.9798	75.1838	2
3083	18.5962	25.1248	22.9608	-170.299	1
3084	53.5258	12.3239	25.4558	101.567	5
3090	26.478	16.9179	20.5372	99.2051	1
3092	34.3167	17.147	20.1539	-44.2942	3
3093	24.4767	28.5506	14.2092	155.455	2
3098	15.7871	30.201	16.9274	162.508	1
3099	22.0896	26.3771	17.7253	110.08	1
3100	13.2479	14.0649	23.2748	59.3543	1
3102	82.0937	46.1948	13.4376	-106.819	4
3104	43.8581	17.4002	16.5785	153.677	1
3106	20.4021	20.3222	24.827	-27.662	1
3107	12.7179	23.5619	18.5648	158.601	1
3109	14.3651	19.7401	23.8433	40.986	1
3113	15.1572	14.669	23.5264	29.8276	1
3117	23.8888	26.1401	8.5959	-147.707	1
3119	15.0179	12.0753	13.5315	10.927	1
3120	24.4384	24.8562	21.8934	-40.1892	1
3124	11.0048	22.8127	23.0538	-75.1504	1
3130	18.1046	14.3974	15.317	109.936	1
3132	49.6054	19.9935	21.2851	151.277	1
3134	21.0929	55.3305	22.5765	-118.147	1
3137	11.1438	16.8356	19.4761	119.242	1
3138	55.495	43.5069	18.5686	-165.407	1
3143	46.1993	12.4196	14.0382	-71.2768	2
3144	10.9378	8.76545	9.41291	-58.4584	2
3150	20.6812	13.4117	15.2527	-9.34875	2
3153	15.213	15.5486	3.11185	17.5156	2
3156	70.1899	9.62698	7.54425	-49.3156	6
3160	11.5483	21.5153	22.0938	-145.893	1
3161	23.8762	17.059	24.4898	-15.4791	2
3165	11.0871	20.978	15.0769	119.418	1
3168	13.2671	22.2392	23.719	-94.4771	1
3169	38.0291	26.0561	23.9024	170.634	1
3185	10.9815	20.1067	13.3992	110.644	1
3186	14.5833	20.4128	16.0432	13.1523	1
3188	13.5058	14.6785	18.8855	-164.932	2
3190	22.4518	8.05628	4.52048	-146.427	2
3192	12.3111	24.6381	12.747	-97.255	1
3193	10.9175	18.8517	24.3725	-76.7283	1
3197	13.6511	18.1671	9.45855	166.455	1
3203	11.7341	22.0922	16.8512	-119.416	2
3204	64.0153	15.2714	19.2003	95.522	6
3205	25.7751	10.1154	18.8972	-99.1151	1
3207	13.1996	11.9149	23.7415	-31.2628	1
3210	10.9467	9.85329	23.0462	27.1894	1
3213	21.6543	17.5657	11.5412	85.2729	1
3214	11.8361	14.3476	19.1828	44.1309	1
3218	44.7845	53.1114	17.4594	-4.93293	2
3226	22.8268	11.9777	5.47941	5.43954	1
3229	11.0355	25.1737	19.1467	43.7195	1
3232	28.3434	21.5678	19.5445	51.061	1
3235	12.2936	23.8239	8.79478	42.8972	1
3236	52.5722	20.7747	12.3635	176.389	1
3239	32.8343	16.4735	6.16304	-125.883	1
3243	22.331	20.1741	14.5081	160.275	2
3244	18.0433	27.179	16.9324	138.212	1
3247	22.7108	11.4132	18.2596	28.6404	2
3250	19.4305	14.3406	25.2767	111.073	1
3253	12.3845	29.4481	24.9116	120.294	1
3254	13.1437	17.2964	22.2758	-96.7325	1
3257	62.3044	19.958	21.5633	41.1223	1
3259	28.7304	14.9834	11.3233	-84.2392	1
3260	60.1832	31.9103	12.2126	50.4555	2
3261	18.6097	12.5628	18.5971	-74.0751	1
3266	18.538	17.9805	24.8832	43.4522	1
3268	10.8542	16.7151	16.5038	-121.073	1
3276	38.587	17.1746	23.7443	-48.2457	1
3277	25.1841	26.8116	19.3404	75.6736	1
3282	43.7327	16.2608	14.5574	40.0113	2
3285	12.3067	20.4922	18.3842	-101.419	1
3287	43.8846	23.3265	1.35526	49.7582	1
3289	36.4058	26.9115	22.6679	133.612	1
3292	14.1821	22.022	19.5318	55.0379	1
3293	30.1047	10.1313	15.273	95.416	3
3295	14.6826	21.8201	20.7199	3.37216	1
3296	14.7625	14.4635	14.0842	134.225	1
3298	17.9007	33.2719	8.85531	-6.34225	1
3299	26.3345	12.0746	25.0062	-179.923	2
3300	13.9906	14.5793	14.6359	110.096	1
3304	67.2768	17.2212	21.9304	46.9076	4
3305	17.6983	17.9666	24.9616	-13.9217	2
3307	17.5315	9.31767	17.3574	25.4442	1
3311	25.363	22.4911	11.8701	97.2925	1
3317	17.5439	26.5431	18.6065	-69.4762	1
3323	71.2064	12.3189	12.9324	-9.14648	21
3330	32.446	19.2477	22.629	-35.5571	1
3332	15.6629	5.79418	19.2587	-67.6065	3
3334	17.7463	18.61	13.2923	-109.223	1
3335	14.7571	17.3053	23.9042	-138.072	1
3341	12.8105	16.3238	19.8236	69.2592	1
3348	23.3323	15.9355	22.9111	-126.63	1
3356	35.8337	26.7571	8.54565	-105.976	2
3357	15.0144	17.145	12.7731	-179.489	2
3358	21.7717	8.12038	9.1146	69.2999	2
3360	11.298	25.4912	19.3663	-18.6777	1
3372	13.0795	30.2024	20.4092	131.541	1
3373	40.1488	10.1559	3.11575	80.0174	3
3374	14.0206	35.3977	23.919	-66.189	1
3376	19.4069	13.5399	10.3511	-53.4848	1
3379	54.1849	19.005	19.6698	-96.0346	2
3382	25.4047	12.6785	22.7951	-25.6203	1
3390	21.762	19.8801	18.2055	-124.329	2
3392	45.4657	8.98544	24.8891	-174.301	5
3394	10.0901	10.2162	12.5918	-54.1136	1
3395	16.9495	7.11343	14.1528	-132.163	1
3398	70.0608	14.4177	18.0461	104.875	4
3400	30.4657	23.783	20.5177	-80.294	1
3402	16.3523	13.7844	4.85885	-31.5546	4
3403	18.4145	11.7158	16.8296	85.8019	1
3404	14.6553	17.8413	20.1636	-172.91	1
3411	21.0429	17.6757	14.5779	-91.3819	1
3413	75.9616	27.2635	8.29201	74.7728	7
3414	12.4062	21.545	1.23664	134.941	1
3416	38.9377	21.0958	19.687	-96.1483	6
3417	12.8354	32.1057	23.0435	142.768	1
3423	27.4894	21.1243	11.3224	5.98404	1
3427	17.4221	10.556	22	124.693	2
3428	15.0142	20.8101	19.8319	-83.1997	1
3429	15.3015	13.551	4.42619	-83.9006	1
3432	10.2751	11.7182	14.5031	156.467	2
3433	21.1001	39.7434	24.5444	30.322	1
3435	14.5933	23.4894	10.0799	-51.4106	1
3437	49.6747	15.8421	21.1734	102.146	3
3438	19.3555	18.9567	25.3485	-7.27127	1
3444	18.7605	17.0513	6.80132	-92.4646	1
3447	27.0328	24.425	23.9486	122.073	1
3452	27.8221	15.6574	24.1883	-101.191	2
3453	18.1245	24.8275	15.6768	44.0447	1
3454	47.919	9.86993	16.6241	-15.5606	6
3455	16.2848	23.8101	13.0223	73.5252	1
3459	61.6122	29.2826	12.8824	108.909	2
3463	14.9867	29.2364	16.3247	-130.368	1
3464	39.5274	23.5983	4.11592	-164.114	1
3465	41.5012	14.1529	3.53318	15.0737	2
3472	35.4161	39.8522	16.8097	178.161	2
3473	24.9236	24.8488	8.63636	87.2237	1
3474	10.2226	44.7764	14.0859	129.416	2
3475	72.6515	19.4454	13.2771	14.9679	4
3478	26.6534	17.1128	11.179	10.4759	2
3481	52.4722	41.2783	25.7189	156.226	1
3489	11.1088	17.5701	22.3467	17.404	2
3492	15.1444	24.1851	12.4753	-120.42	1
3495	65.792	20.8106	15.4825	53.9653	3
3498	19.5386	4.45873	15.8963	-107.843	7
3502	12.5995	23.1171	4.44859	-135.62	1
3507	22.831	16.2351	25.6258	-97.4	1
3511	76.422	8.45317	18.1672	170.081	1
3514	26.8348	11.9722	11.2616	144.179	1
3517	12.6104	22.2317	23.6316	-45.5093	1
3530	17.7615	15.3399	14.0132	-101.78	1
3534	23.1189	18.6334	12.3107	1.85399	1
3537	18.4883	18.8212	24.5028	145.357	1
3541	62.0737	17.8243	8.00433	-85.8222	4
3546	18.3388	10.662	14.6573	23.6433	1
3547	14.607	21.3766	22.7057	-72.571	1
3549	59.2497	16.1707	12.7502	171.083	1
3550	36.876	20.2213	9.05909	51.6249	3
3554	14.1528	26.401	5.40286	175.135	1
3555	23.7769	33.0747	23.6609	-101.041	1
3556	20.3425	14.6507	12.8375	172.155	1
3558	38.1827	19.7687	23.2023	-37.9494	1
3559	25.9281	21.8562	16.1026	113.902	2
3560	11.1556	21.3126	14.0921	66.6034	1
3561	19.3644	36.7611	14.7384	-155.78	1
3562	25.3	29.2936	24.29	-66.5872	1
3567	49.0449	33.7962	9.41534	51.8358	1
3568	25.5396	25.9511	23.9227	-72.7772	1
3571	34.7148	17.8508	15.8112	-105.302	1
3573	14.8742	12.8159	23.9216	-51.9943	1
3575	31.6379	16.3232	25.7525	-117.859	6
3579	57.4456	12.3809	17.48	34.8717	8
3585	11.5092	20.3327	17.9138	166.837	1
3586	24.9377	16.3079	9.41822	-162.333	2
3588	22.5386	13.8337	10.7893	-21.7189	3
3590	10.37	22.4075	25.4602	40.2127	1
3592	16.7022	12.0759	13.077	-8.5186	1
3593	21.3006	16.7545	25.549	-127.407	1
3594	29.9528	22.5219	19.1429	-171.725	1
3595	32.6856	20.9553	19.996	-71.9562	1
3597	16.8988	4.82021	11.5714	132.301	5
3604	12.5323	11.7882	23.1543	58.2034	1
3605	20.0521	25.1202	25.5801	128.525	1
3606	45.409	19.272	23.5723	-168.991	6
3608	18.8883	15.5108	11.4855	45.8253	1
3610	22.497	14.0959	8.41944	-122.637	1
3611	63.4665	25.41	14.2602	-68.6688	1
3623	20.9186	8.84582	24.2014	175.752	1
3624	45.58	16.0136	6.67947	97.4768	4
3625	66.7477	18.8622	11.2582	-27.274	1
3626	22.8218	25.3012	16.8313	140.052	1
3628	12.1051	21.5706	24.4613	155.945	1
3633	21.8989	15.8154	14.9006	87.6995	1
3635	81.6584	17.6173	17.3057	24.0051	6
3637	11.3309	18.5195	21.8641	96.2591	1
3638	17.9876	12.154	5.41062	-127.531	1
3644	31.5316	16.2358	4.85752	150.353	2
3645	23.7271	25.9122	23.7464	32.5503	1
3649	62.8061	31.8795	5.34887	67.8151	2
3656	67.343	31.3553	18.0683	-3.54757	1
3658	14.0543	17.1652	18.2554	-0.766607	1
3661	31.3924	17.4726	20.9681	63.2243	2
3666	12.0477	36.1919	24.923	86.4792	1
3672	39.0056	26.1162	24.2147	-113.225	2
3675	84.6976	21.3484	22.6581	-164.301	1
3677	15.5538	19.1289	2.67281	68.2795	2
3680	11.6244	17.1398	12.9977	25.5631	1
3681	48.8017	25.2126	17.902	136.208	2
3684	21.6122	9.97427	19.6729	-149.019	2
3689	11.5091	30.3506	15.1468	-45.625	3
3693	21.1819	27.3149	18.2263	-50.9052	1
3696	15.5047	30.0953	16.6955	88.3105	1
3701	21.684	22.3317	23.6977	-22.0278	1
3703	13.2883	19.6964	16.2587	172.185	1
3704	39.6739	25.4493	23.9785	29.4937	2
3722	14.3137	42.4826	19.7784	139.333	2
3723	14.0857	26.6269	24.5844	91.9022	1
3724	14.2261	62.1253	19.1084	135.514	1
3726	21.1631	37.739	20.153	-68.4068	2
3729	15.9995	26.5072	22.6626	83.5285	1
3730	20.1997	37.6894	20.6583	-127.251	1
3731	66.9564	15.7605	23.4358	54.6574	4
3733	52.3564	14.9592	16.7417	174.872	1
3738	14.2181	16.3797	24.8316	52.4396	1
3743	45.4509	33.4081	11.5775	-53.0402	1
3748	27.8098	34.5599	23.7962	151.489	2
3754	12.3292	24.8888	21.677	8.30936	1
3758	36.2817	18.6765	20.2127	137.97	2
3765	20.17	7.99087	5.92929	-52.966	1
3766	22.1721	15.5113	19.7447	50.7865	1
3767	41.942	16.9993	12.6126	70.1928	3
3768	12.1145	21.9118	16.4397	20.9524	1
3771	15.6613	16.7088	15.6463	145.656	1
3772	62.3633	23.9015	19.3615	108	1
3774	23.4571	30.81	1.34394	-179.78	6
3776	14.9666	22.2145	8.33109	-74.6962	1
3778	22.5309	18.2756	25.7025	4.96303	2
3783	66.7553	22.0783	19.3969	-102.872	2
3785	14.2016	15.4151	22.6515	61.3482	1
3790	28.2686	17.1584	18.9869	131.431	2
3792	59.2639	6.89263	18.8893	89.6153	20
3793	21.7877	22.7918	13.7102	-142.871	1
3796	17.5074	24.3215	13.6409	-165.097	2
3799	31.5931	13.3245	21.7937	130.264	1
3800	23.818	16.9753	8.98158	-124.129	1
3801	22.0245	14.3902	19.0467	11.5449	2
3807	39.6468	10.6029	16.304	-120.54	4
3809	96.3119	19.4945	8.8869	-4.79359	4
3810	13.3949	34.3822	23.1237	-10.7489	1
3812	10.3192	15.1654	20.412	-66.3026	1
3815	60.319	30.3913	22.2799	103.177	2
3816	21.4336	19.3074	7.40708	104.705	1
3817	29.954	17.87	21.7807	-42.4399	1
3819	11.6424	8.58692	9.44706	-31.4245	4
3829	27.9241	28.3874	24.1905	168.487	1
3830	22.9715	16.0732	17.6247	74.05	1
3834	89.7967	24.2619	14.3469	-54.4385	8
3838	16.0245	13.0056	18.3361	-48.1217	1
3839	13.2	11.0965	14.6938	112.612	1
3840	10.5627	13.4903	23.2006	179.603	1
3844	16.001	22.2033	16.4319	-89.724	1
3845	22.4953	6.86772	12.6975	-20.8293	5
3847	10.7426	15.9379	10.0942	33.8987	1
3848	58.6127	21.1047	3.88251	-77.6193	2
3849	10.2063	16.4012	14.2456	-156.035	4
3850	17.2399	21.4558	5.08657	29.5117	1
3851	14.1678	17.0812	7.09835	101.851	1
3852	16.0296	13.9127	13.6642	-117.629	1
3856	11.3355	16.3008	18.2203	-129.392	1
3857	23.3183	20.9047	22.1251	-144.389	1
3861	21.4	26.0322	15.553	-50.3825	1
3862	12.1318	22.2275	14.6777	-84.9121	1
3865	13.4179	21.9079	17.9268	38.5985	1
3870	32.1925	21.8848	6.05713	85.7477	1
3872	12.4124	13.5716	4.81765	2.72517	6
3879	18.1966	21.5217	24.7599	21.6619	2
3883	14.7207	14.0309	15.7354	-45.9011	1
3884	60.896	23.0048	14.6714	-178.579	2
3889	12.1597	13.8249	6.96366	-126.798	1
3894	15.2585	21.6293	13.6829	-17.4152	1
3896	25.8312	25.4584	18.6062	-16.8383	16
3897	14.4225	9.66336	17.3179	108.967	2
3899	23.6285	20.7787	21.9501	-85.358	1
3908	17.0213	11.127	22.9765	-96.9063	1
3910	58.7606	23.6869	19.6966	-116.514	3
3911	17.4881	29.125	22.5571	-74.0603	2
3915	86.2442	25.0212	6.31073	-133.807	4
3919	12.5192	29.2803	7.6037	33.3613	4
3921	12.0503	9.48897	12.4746	34.8016	1
3923	15.2481	17.7461	19.347	85.7741	1
3928	23.5863	17.3861	22.9777	86.9684	1
3931	35.1077	13.3918	17.7132	-94.1882	3
3932	17.0264	25.6134	22.0996	-55.0447	1
3935	16.252	22.12	11.7465	31.2434	1
3936	15.0051	18.5057	14.044	-39.6646	3
3937	20.1768	12.9952	3.99974	-51.1327	1
3944	21.0532	17.9194	21.8188	-111.036	5
3946	29.4087	19.6103	21.3096	174.03	1
3948	20.3141	21.497	16.3926	-92.8966	8
3949	25.4923	30.0716	15.1397	83.0571	2
3951	17.0101	29.2994	5.47575	14.8129	1
3954	16.9021	16.0927	9.82032	135.245	2
3961	29.5194	16.1476	19.4441	48.8052	1
3964	13.1739	13.7103	24.1611	-69.7654	1
3965	10.4943	22.4223	20.7839	98.0246	1
3966	25.6758	13.1558	12.8042	39.2341	1
3975	13.9647	17.6318	18.1327	-67.466	1
3982	33.3135	16.094	14.8018	30.7589	1
3983	40.8491	16.7916	24.733	9.40312	12
3987	16.0167	12.9637	15.9497	-32.9977	1
3990	38.0257	27.448	19.9318	158.006	1
3991	14.3794	11.5077	18.0193	-67.5972	1
3992	60.7004	17.8437	19.2374	-70.5797	2
3993	15.1162	16.9434	7.7418	120.919	1
3994	21.6277	26.4858	1.08273	52.2353	1
3995	57.5848	20.0845	9.14895	94.1001	2
3997	12.2316	12.9849	25.1373	-11.7324	1
3999	36.5392	12.8591	22.4181	-124.297	3
4000	80.5478	14.2315	15.9306	16.1744	4
4002	16.0927	12.4597	13.4075	-57.8542	1
4005	11.3525	22.8269	21.9509	-133.816	1
4016	27.9436	30.5302	15.0637	30.7823	1
4017	19.2436	33.2051	6.41625	29.353	2
4018	18.4298	10.7243	9.68239	-162.055	1
4022	26.5065	8.81204	6.04893	-106.879	5
4025	12.8768	21.1578	21.3825	165.31	1
4028	28.341	15.4107	25.318	159.592	2
4029	25.7518	15.2112	10.4471	-136.395	1
4030	12.6318	12.2257	12.2518	-39.1213	1
4035	19.761	18.5137	10.4006	169.301	1
4039	18.1724	14.5281	5.88456	-102.239	1
4045	34.6074	14.4174	20.2108	66.2038	1
4046	64.3549	15.7429	8.65253	-49.7143	3
4047	17.9748	21.594	19.8008	-148.374	1
4048	14.6269	9.10153	3.25416	120.671	1
4052	18.53	16.4494	6.87479	12.1453	1
4054	12.2172	16.117	13.0625	167.962	1
4062	11.3204	28.1464	16.5824	95.599	4
4064	11.4415	19.0542	6.26815	-70.4237	1
4065	13.5139	26.2147	18.8218	-8.85183	1
4067	23.4658	16.6285	20.9076	144.958	1
4069	32.4449	16.9851	21.3843	-21.8931	1
4071	34.4104	12.6504	14.7366	81.3354	3
4079	21.6311	22.5331	24.4629	100.363	1
4080	25.4716	11.8045	8.43253	-6.88552	2
4082	41.7607	16.4092	24.0297	-110.381	5
4084	14.7475	15.8343	7.12418	52.1408	1
4087	23.2534	9.96804	3.20086	3.40226	1
4090	13.2455	10.3676	12.8047	-177.838	1
4091	16.4922	39.8051	14.6345	42.3986	1
4093	50.7889	22.0078	17.9832	-99.1101	3
4096	14.6808	23.3388	20.0064	-80.2338	2
4099	16.2115	21.399	7.26558	51.595	1
4100	20.2175	29.5367	19.4701	-51.7345	1
4104	50.45	22.4352	19.5368	131.3	3
4105	60.9324	11.9785	11.8753	-107.251	3
4112	13.2088	21.9311	14.6804	-104.514	1
4116	11.9426	14.8802	18.8771	30.4881	1
4120	49.57	14.2238	22.2303	-48.0692	4
4121	10.2685	16.5157	6.75451	55.4574	1
4123	45.9964	15.9822	22.9133	-169.941	1
4125	20.0757	23.6515	20.8085	-25.6071	1
4134	11.0732	12.8039	3.49292	95.4112	1
4136	11.2189	13.8985	25.6088	139.242	1
4137	17.3782	13.343	21.6264	41.8965	1
4140	36.3368	13.0729	9.72132	-152.39	1
4144	10.6532	34.3298	18.4501	-174.742	1
4148	50.7678	17.9604	24.4646	-124.644	8
4151	11.9099	15.812	20.6942	-128.397	1
4152	12.8056	16.5737	18.7785	-138.494	1
4154	23.4341	9.20866	10.2484	8.28393	1
4157	47.4024	36.6045	19.6674	-128.881	2
4163	53.9103	28.5915	13.4584	174.726	2
4165	17.3529	22.8355	24.6874	0.866536	1
4169	22.5736	9.91755	15.8872	-54.9697	2
4173	13.9591	21.7922	20.9291	62.9034	1
4174	25.0647	29.974	13.9732	100.013	1
4176	33.5823	14.7158	14.9565	-55.84	1
4177	10.2999	21.4623	1.96839	94.6688	1
4179	61.7764	13.3568	3.22105	34.9455	2
4180	14.7042	12.8323	18.3917	-74.9452	1
4187	10.7554	17.3574	23.2983	21.1327	1
4188	21.5656	20.0889	22.5137	-96.9416	1
4194	19.375	19.3909	21.5956	127.794	1
4197	22.9912	15.1191	21.2923	162.479	1
4207	15.7946	23.8989	23.3084	31.1601	1
4209	27.1841	22.976	24.6505	91.5244	1
4210	29.1628	22.3855	22.7034	-179.512	1
4214	71.3274	24.6201	12.625	135.721	3
4217	38.4931	23.3776	18.5469	-147.146	1
4220	20.9356	28.9419	24.4582	141.097	3
4226	19.0476	18.4673	21.2453	11.6409	1
4229	12.8026	10.9118	25.5518	137.687	1
4230	18.6666	25.6385	16.1577	9.64975	1
4234	20.8196	8.55517	23.4027	-25.7365	3
4235	18.4905	39.534	3.74142	123.795	1
4240	14.1384	25.0847	21.5258	88.9007	1
4241	33.6647	23.6552	22.671	145.012	1
4244	13.4512	14.1608	25.2018	-170.508	1
4245	10.1086	23.1154	11.9387	26.5407	1
4247	92.0669	20.0119	25.1282	-159.759	2
4250	12.082	9.92337	11.5005	-118.767	1
4263	17.0282	22.2848	20.9934	-34.6557	1
4265	30.4109	18.354	10.292	59.4007	1
4269	10.4734	33.9851	13.9693	-115.404	1
4271	26.6798	14.849	13.7903	163.972	1
4272	20.004	12.894	19.4452	161.37	2
4275	97.1577	24.5916	12.7577	-169.305	6
4282	27.4562	6.83945	24.8933	-112.453	4
4283	13.951	24.4735	17.7138	-156.66	1
4284	13.957	15.1008	12.5988	-30.2896	1
4286	32.5758	14.2863	19.5454	39.9114	2
4289	20.232	25.9454	16.1545	-54.3669	1
4294	69.4225	23.8268	23.1084	-20.3243	2
4301	47.8868	14.9537	20.2636	14.1671	1
4303	10.0586	22.0574	21.8736	121.738	1
4307	14.7171	18.9249	17.7268	90.1093	1
4312	16.2965	15.5725	8.58849	-20.39	1
4320	17.1656	18.3744	19.6835	-5.07854	1
4325	17.3197	12.2791	19.9799	-102.943	2
4333	28.1462	24.8306	24.6487	-23.5366	1
4334	31.8814	13.0334	7.42673	107.692	3
4336	10.98	50.9671	22.7438	-99.9121	1
4351	36.8853	15.5873	25.4394	-60.6012	1
4358	24.3308	27.0504	22.4817	-65.088	1
4364	15.1698	31.6798	23.8142	8.36804	1
4367	26.1474	10.3247	21.9155	51.9409	6
4368	20.7165	21.1715	10.9791	-3.1487	4
4369	12.386	15.7088	24.879	119.695	1
4371	23.2291	36.0167	20.8635	-1.47882	1
4373	13.5767	8.33616	11.67	16.3262	7
4374	10.6798	14.8742	3.83535	90.5007	2
4375	26.6857	31.6978	25.3391	100.031	1
4376	38.3145	24.6676	21.4327	-23.1516	1
4377	34.7696	18.6956	16.922	174.593	1
4378	10.477	8.41306	7.51196	153.142	2
4379	38.1564	16.6616	6.30628	-177.823	1
4382	35.1283	28.5964	21.3778	149.645	1
4386	37.2355	20.4993	24.2976	-94.1382	1
4390	11.1947	16.2823	19.5951	118.377	1
4394	56.4207	14.4723	4.20239	83.3198	2
4396	11.7343	14.8916	23.1564	121.405	1
4397	13.33	8.42716	18.1562	155.846	2
4398	26.5112	12.0108	24.7519	132.408	1
4401	11.984	15.6024	21.0641	-56.9421	1
4402	10.3149	7.21823	19.8159	157.773	1
4407	13.6733	30.0589	20.3414	173.39	2
4408	26.8078	15.9833	18.1208	-42.2952	3
4412	28.1969	18.3168	21.2756	-66.4493	3
4415	71.3635	17.6346	16.0578	-28.3579	3
4417	35.9958	17.0164	6.56181	-142.898	2
4419	26.5128	29.6794	14.0227	-104.362	2
4420	10.6268	12.9379	10.1546	133.959	1
4421	20.5642	24.1059	17.7253	-39.0417	1
4422	56.0067	25.0246	15.6014	159.062	13
4423	72.209	4.53004	21.6803	-43.9134	19
4434	33.9725	26.1873	24.7935	146.476	2
4441	16.8488	26.1273	20.2478	-174.269	1
4446	27.5504	25.94	25.0858	-142.703	1
4450	20.1542	30.554	16.4376	-11.7484	1
4451	94.1798	19.4397	23.4665	125.519	3
4462	15.8415	19.9085	8.40968	-6.90877	1
4463	10.3393	16.6032	21.8953	111.312	1
4464	14.4196	14.6158	24.1531	-50.9129	6
4465	40.114	22.4329	21.8803	-170.144	3
4468	35.8473	36.6935	23.9478	84.6242	2
4473	35.2775	22.2272	16.1287	-52.6063	1
4474	19.7648	19.2527	6.78803	110.889	4
4476	15.0732	15.9638	14.508	125.056	1
4482	13.6338	9.67138	16.3399	107.556	2
4492	73.4179	9.60338	15.1754	17.5012	5
4493	19.989	15.1921	14.5859	83.8266	1
4494	24.417	10.5989	15.7076	-163.818	3
4495	51.944	17.1097	23.5421	-34.5533	2
4503	25.9073	33.0567	14.4616	-38.7298	1
4504	91.1151	35.7897	14.4144	-128.004	19
4511	13.0696	23.0586	12.2355	-113.021	1
4520	12.1283	37.868	10.807	157.538	1
4526	17.8109	26.3071	18.8481	52.6076	1
4533	30.0129	21.6264	9.76477	50.3455	2
4538	24.1996	22.1059	22.8243	155.261	1
4539	31.8549	20.1004	14.9717	-179.389	3
4544	22.502	32.2794	24.7807	-58.5906	1
4549	27.4501	6.62764	14.955	-7.70078	7
4560	15.167	40.7905	10.4724	118.443	1
4561	10.6572	8.78099	1.2938	-105.68	1
4565	43.1323	26.4835	20.2056	-71.1079	1
4576	25.4886	31.0636	8.06938	-66.4688	1
4577	18.1413	9.65761	22.7789	31.1489	1
4580	88.1693	19.485	8.51214	-177.498	6
4585	85.4792	28.1518	22.4387	169.578	7
4586	25.9681	14.8906	14.0362	-74.4375	1
4590	27.9427	21.5255	8.08726	-164.943	3
4593	12.6962	18.1156	19.0829	88.6115	1
4594	12.5234	10.0361	12.3176	14.2476	2
4595	12.3915	12.3182	19.4239	84.5896	1
4596	16.6283	16.4881	5.45434	105.702	2
4598	25.1619	44.694	21.3017	77.1725	1
4599	13.3306	36.164	24.0142	-98.2116	1
4605	30.489	33.2265	13.4329	8.0749	1
4606	60.2582	11.7956	20.9254	34.7428	6
4611	13.1069	24.3197	23.7229	95.0503	1
4615	27.9366	20.326	10.4669	86.4657	1
4618	10.1526	24.3542	16.3333	83.6478	1
4623	55.7353	10.894	18.7914	97.9283	4
4624	15.1062	43.3325	14.4923	91.2277	1
4625	16.9812	15.3057	22.783	-134.303	1
4626	38.8978	23.4021	23.489	162.461	6
4638	12.5441	11.5562	8.98618	-87.0178	1
4640	31.9639	15.7503	15.9323	-76.0898	3
4641	13.4152	16.8835	9.45365	36.7216	1
4642	25.0501	24.9975	17.0665	-14.9643	1
4645	18.1246	11.4085	18.3176	-96.2118	1
4648	17.2955	16.2753	16.5234	-3.89552	1
4649	46.7485	26.918	22.365	52.6594	4
4656	12.6828	29.1732	21.2689	34.844	1
4659	16.7887	14.4753	20.1257	140.503	1
4662	26.0614	16.912	20.4555	132.307	2
4663	33.7276	11.4014	23.5769	-154.303	1
4664	17.3692	14.599	2.00588	-26.0225	3
4666	20.9648	16.6432	24.9017	-127.736	5
4669	27.1979	21.2786	4.8176	174.255	1
4672	65.3581	19.508	19.7877	174.621	5
4674	11.9674	21.2681	23.5609	7.55167	2
4675	24.9841	45.7188	15.7359	153.211	2
4676	29.4335	20.0943	15.0877	-97.4824	1
4677	14.0279	29.6169	21.9211	79.3273	4
4678	19.4211	12.5673	7.39802	116.833	1
4680	12.4298	20.9198	15.8456	-66.6131	1
4685	71.9548	35.1957	16.7834	-6.0466	5
4700	15.3852	21.361	18.6896	175.407	1
4702	84.7716	15.7403	21.3397	78.6022	7
4710	33.9274	30.6672	21.1077	-79.3919	2
4715	74.4249	29.1274	7.96121	-126.788	2
4717	41.3737	35.3705	9.95655	-146.042	6
4718	13.18	13.6395	18.1797	-34.5254	1
4722	33.969	19.511	17.7336	-156.961	2
4723	12.1155	16.3957	10.7752	-36.1883	1
4724	20.0242	32.883	7.77444	-19.734	5
4725	10.6654	14.9802	24.7743	18.1054	1
4730	14.4206	14.6532	9.95352	152.353	1
4731	17.2926	16.2599	11.4856	121.1	1
4733	30.3125	19.295	16.4574	-17.7891	1
4734	22.7146	21.8592	22.1672	-91.3957	1
4740	32.9399	30.8778	17.4612	117.836	2
4745	58.9236	28.8539	9.78639	78.6196	2
4751	17.137	9.0482	21.0341	163.703	2
4752	29.7896	18.3601	18.2733	119.424	1
4753	16.8336	35.1235	16.89	-11.2184	1
4754	29.5982	15.0695	14.7136	59.6964	1
4756	35.069	13.3041	8.93049	-1.77561	1
4757	20.4724	18.5848	24.6958	130.3	2
4763	12.6233	12.7452	10.7517	101.057	1
4767	62.0273	20.8506	14.2535	-97.5852	2
4769	30.3619	18.7787	16.0153	-124.235	2
4771	43.5076	12.2458	11.8975	-111.833	5
4772	12.7501	24.295	25.0706	65.1551	1
4773	22.5058	10.763	21.2819	112.701	2
4777	39.094	11.0748	9.81973	-85.9128	1
4780	17.2111	10.1721	10.5996	104.259	1
4781	11.7904	12.1214	21.2385	-67.9688	5
4782	13.129	36.24	24.153	3.74206	2
4783	22.9331	10.451	19.911	-162.404	1
4786	10.4978	17.2741	22.3719	-127.788	2
4791	58.1128	35.1572	20.8508	110.421	3
4792	23.9196	16.1808	22.313	90.2751	1
4797	44.3481	18.9251	20.2419	37.3568	2
4800	13.8892	18.1675	12.789	-61.1921	1
4802	44.4627	24.415	13.8496	126.952	4
4803	15.3422	44.4734	6.64027	88.844	1
4804	30.821	17.96	18.8482	53.9362	2
4806	18.3314	24.5947	18.8766	-164.868	2
4809	31.4578	35.7868	16.9912	104.257	1
4810	15.9732	19.0122	17.1407	-12.9189	1
4816	31.2968	22.5707	15.4402	-48.4452	1
4821	35.7276	13.7002	23.1437	91.6363	1
4826	16.03	26.5034	15.6916	-14.6643	1
4827	38.6842	24.9743	9.1934	-29.7267	1
4829	43.8304	22.247	16.9214	101.232	3
4831	61.6121	19.4208	12.9421	-144.981	2
4832	20.6029	13.3314	19.0796	26.5553	2
4835	14.9019	11.1801	20.6627	-36.4702	1
4840	21.1578	18.556	14.4414	-95.45	2
4843	67.6011	9.50031	14.3191	177.041	7
4846	17.9645	24.4482	17.74	12.9711	1
4851	33.6145	19.5937	22.6741	-47.4353	2
4854	61.5327	14.5371	22.5614	90.7429	4
4856	23.5842	16.6349	24.2455	-135.887	4
4859	39.3681	24.7891	20.1456	-129.312	2
4863	20.3788	23.8468	4.43942	83.1727	1
4865	16.7609	20.3261	17.3	-152.429	1
4866	15.2731	21.6183	23.2958	-156.869	1
4870	16.497	18.891	8.83745	167.207	1
4872	54.5011	21.6708	23.6264	130.868	2
4873	12.8942	4.59717	6.68025	-115.701	5
4874	30.9653	23.0755	9.43236	125.3	3
4877	40.092	40.7213	13.8933	-6.96376	1
4878	18.3951	18.7449	10.3463	-65.8691	1
4881	40.5682	15.0227	16.3581	-131.125	1
4882	12.7185	17.4797	8.34149	50.539	1
4883	15.2976	32.1408	24.2593	-49.3889	1
4885	31.1348	24.8648	25.5126	-165.95	4
4888	28.0307	26.333	19.8126	-10.2404	1
4891	13.0193	15.428	9.6	9.24887	2
4892	67.0977	19.8153	22.109	-78.5121	1
4898	43.4698	19.3527	21.1906	-145.181	2
4908	24.7489	24.094	6.29514	-174.421	1
4915	33.4234	18.7508	12.9906	163.08	1
4916	35.5107	10.1411	6.66135	-59.2884	3
4920	26.096	16.4261	12.977	118.557	1
4926	22.6759	18.5761	25.0083	-60.9805	1
4927	13.3907	18.8574	19.1711	-130.208	1
4928	15.3688	10.4569	6.21363	-24.0369	2
4929	19.7234	12.2555	21.5326	-5.071	1
4931	32.6983	17.0949	4.32015	10.3534	1
4932	10.4134	12.1759	22.7141	68.0747	1
4933	13.2257	16.3565	1.26489	-108.369	1
4936	15.2901	21.4922	23.6681	80.9343	1
4937	49.4827	22.4544	20.544	6.5468	3
4943	16.8286	17.2899	14.0319	-123.657	1
4950	22.2964	13.132	24.398	166.779	1
4957	48.2759	29.9657	22.6629	7.38112	3
4958	25.8258	9.86711	22.1604	138.765	3
4971	24.3151	11.1873	9.80599	-178.266	2
4974	10.1345	15.6239	23.2829	-116.21	2
4976	43.3581	15.2862	17.4326	10.5114	5
4977	19.9352	18.4965	13.8073	-11.9	1
4980	22.4518	15.5594	20.3851	23.6992	1
4982	25.6938	18.6103	14.6394	90.6791	1
4984	12.6123	8.09644	14.9032	52.7156	1
4985	20.5229	9.26119	11.7217	28.4802	1
4988	26.1583	19.865	14.4623	-167.336	1
4992	12.6462	28.6802	14.7464	-122.905	4
5003	25.8084	35.833	19.22	138.215	2
5004	50.6852	10.5627	17.8347	-121.397	2
5005	36.5025	17.3598	24.4354	-69.6221	1
5006	23.4087	28.1172	8.77968	-119.481	5
5007	51.6684	16.3458	6.3256	-42.962	2
5015	60.1439	16.0502	23.6439	-44.118	2
5018	22.8208	23.6897	7.70508	-171.93	1
5019	20.8133	15.7722	17.7066	-102.57	1
5023	19.4168	22.2166	16.9843	75.4329	1
5025	88.0905	29.5527	5.96833	68.0286	4
5029	32.0569	19.2547	15.5426	-98.9421	2
5031	17.0533	18.766	12.7542	-69.5714	1
5032	23.6158	17.4492	11.8941	-26.7544	1
5034	10.9048	22.1089	22.0641	109.316	1
5035	53.1593	24.8074	17.3368	167.582	1
5043	26.6082	18.7061	18.5985	108.859	2
5044	12.8765	21.5783	23.4442	49.5547	1
5045	38.092	16.1436	13.3761	-95.0882	2
5046	24.249	16.386	23.725	-56.9632	1
5050	20.8536	17.9889	14.3905	84.6825	1
5051	23.6128	27.8309	15.4809	137.166	1
5053	23.9865	24.0929	22.0775	29.8895	6
5054	39.1428	19.6213	20.8433	-99.2897	1
5055	44.714	24.4272	25.1097	55.2883	2
5057	15.5439	18.0299	6.04757	45.7967	1
5061	60.0315	29.0952	19.7598	131.239	2
5064	19.5562	42.3053	24.72	-90.5619	2
5068	73.457	38.879	17.6104	101.356	2
5069	20.0394	18.7683	25.7792	-118.352	1
5070	17.4399	20.3155	24.0883	-169.19	2
5074	22.2697	18.8756	14.1465	-6.91523	1
5075	12.6041	23.0238	24.6454	-85.6894	1
5082	58.4565	14.0672	15.188	-137.756	3
5086	16.9262	13.1005	12.1451	74.4897	1
5094	47.4211	20.6617	20.0258	174.294	1
5095	22.2231	31.8929	14.0099	110.787	1
5104	13.6802	23.7146	19.7266	-92.9582	1
5105	88.5511	11.5107	18.5071	122.932	2
5108	10.0656	10.5259	20.693	-146.493	1
5109	19.7617	6.48692	10.3322	-5.16858	2
5110	12.0296	28.4153	14.804	-138.876	2
5113	14.6114	20.1804	24.543	31.2031	2
5116	36.5359	38.6347	10.0682	40.0185	1
5117	13.9721	19.5225	22.6142	99.2072	1
5120	50.7622	35.4942	23.1679	26.5442	1
5124	32.1813	24.4292	14.5644	-78.0299	1
5129	42.4763	13.4138	24.8238	-144.57	3
5135	11.0905	10.5349	22.2742	34.5701	1
5141	42.5491	17.9544	25.3893	153.718	1
5143	91.9302	30.3275	4.19342	12.1406	1
5145	47.1198	13.4133	8.6397	171.513	2
5146	12.9409	18.7966	19.6052	8.35187	1
5154	12.442	8.17718	9.9762	-78.6683	1
5157	11.6112	16.8031	4.69206	-91.9375	1
5163	31.6122	30.367	22.3441	97.0032	2
5167	37.2647	27.4295	22.3539	177.794	3
5169	16.3057	17.0661	18.1631	-45.6274	2
5170	34.0341	14.8946	11.6883	119.02	1
5176	18.7117	21.2266	16.7361	-32.5988	1
5180	34.4248	24.785	8.23508	20.7536	1
5183	42.0805	24.1281	7.86388	-55.5497	2
5186	10.0703	22.7423	13.0798	154.922	2
5187	17.0201	30.034	21.1175	-58.8181	1
5190	20.0398	16.2896	13.782	-19.3017	1
5192	10.8843	31.7201	13.3222	-54.1611	1
5194	35.7561	28.3804	12.7641	31.116	1
5195	22.2098	8.75257	13.653	107.839	1
5196	18.8707	22.8376	9.42567	-78.1019	4
5198	10.2966	21.3287	14.441	59.7952	1
5210	47.646	22.2166	21.4658	145.58	2
5214	13.9606	21.7485	23.6718	55.291	1
5215	10.6414	14.6746	16.1932	-56.0551	1
5218	22.1526	17.7196	13.7264	-14.5835	1
5220	33.72	20.7293	19.8932	167.241	1
5222	48.2457	19.4776	19.5577	-88.8135	1
5224	16.0356	19.7295	17.1089	111.657	1
5225	17.7079	21.1053	16.8205	130.045	1
5226	80.9495	14.8898	10.8443	-93.7714	3
5228	22.3338	19.6964	12.9427	-91.1289	1
5231	40.2548	25.0507	23.6022	-86.2746	3
5237	93.3783	36.059	10.5778	168.859	7
5238	14.4609	16.9907	7.78159	97.1656	1
5240	31.1375	11.6357	20.3057	60.784	2
5242	38.4124	21.2958	12.7896	25.3646	1
5243	12.966	28.0437	17.1906	-114.383	1
5245	27.3822	22.4891	20.2223	179.324	2
5246	36.5608	15.855	15.9675	-68.7506	1
5249	13.3681	14.069	18.1644	-153.994	1
5252	11.468	16.2039	25.1118	-172.745	1
5253	22.008	15.5574	9.91528	85.2423	1
5255	12.745	12.6061	24.7334	110.442	1
5260	22.695	16.4168	17.7512	117.571	1
5261	15.4963	20.0202	18.1428	-65.7583	1
5262	29.4614	56.3943	14.0896	154.304	2
5274	43.1875	21.0886	18.2483	149.803	1
5283	13.3784	17.9431	15.358	61.5924	1
5285	46.8941	20.112	15.6623	-99.9898	2
5289	49.6034	37.4422	15.2162	28.0681	1
5293	27.8881	13.4495	5.56068	160.285	1
5294	63.2165	19.1564	14.0434	-167.138	1
5298	14.1287	23.5818	18.8427	52.4453	3
5301	26.2314	12.2535	18.7719	80.5712	4
5303	18.0415	14.6026	12.2516	-59.9721	1
5305	11.9101	13.6832	14.16	13.2063	1
5310	53.7579	24.5158	12.1062	-108.967	5
5314	70.3721	22.1877	11.4487	6.94601	3
5316	14.9227	24.4255	14.7997	-94.907	1
5318	22.8251	28.4704	24.993	-96.969	1
5320	66.3957	30.878	25.4477	-147.313	1
5323	12.2712	20.4572	17.893	-20.3078	1
5327	21.4691	16.8399	12.9618	43.4397	1
5332	30.4733	14.6721	23.9381	49.9104	1
5333	15.4656	19.4955	15.1113	-27.4691	1
5335	15.7572	22.1783	15.7862	-0.599502	1
5338	11.5021	10.8328	4.68731	176.702	2
5343	18.7771	53.4702	15.4658	72.0426	1
5348	13.9751	15.8094	15.7771	118.295	1
5349	10.6126	15.2756	18.3297	89.4648	1
5350	17.8976	21.7337	16.0079	98.8516	1
5351	18.7369	14.4384	16.1591	-0.0628803	4
5353	10.554	33.563	21.599	41.6483	1
5363	15.4936	13.9363	5.32988	-140.594	3
5368	11.8476	14.2519	22.4193	-151.291	2
5370	33.4966	13.5553	2.1811	-34.2319	2
5374	25.5409	14.945	4.15057	-173.045	2
5379	15.8152	15.3343	8.87279	-135.58	1
5383	74.8787	14.0549	14.2636	-34.4044	4
5386	23.0891	14.8255	25.5336	-176.711	1
5390	22.2426	9.68364	19.2661	56.9876	4
5391	15.177	23.8784	17.1824	79.125	1
5407	41.1956	9.57041	23.5743	-109.47	1
5408	12.92	10.5782	25.7056	-35.5186	1
5414	27.9591	26.4625	11.8048	34.9117	1
5419	42.582	12.8899	12.5498	78.1014	3
5421	13.4075	28.6333	9.02059	53.896	1
5430	11.2333	23.2047	14.4286	-157.252	1
5431	11.5193	14.1793	22.812	95.7885	1
5432	28.0773	16.9644	20.9103	-120.02	1
5435	48.0468	21.4171	14.6449	31.5501	3
5444	28.1868	29.7976	19.6761	4.83917	3
5448	47.6294	17.9523	17.2346	-117.487	1
5449	24.5933	18.4863	7.6282	-44.8713	1
5450	12.6356	13.5865	14.9467	-65.9001	2
5453	24.0464	21.9555	13.7221	-70.3815	1
5457	14.7946	19.9237	12.0235	-24.053	1
5459	19.7283	16.353	16.4549	-118.798	1
5460	13.7426	21.963	17.0357	53.3855	1
5465	11.2436	15.6361	13.2708	103.742	1
5469	22.6112	10.896	23.7806	20.7493	6
5471	17.3734	21.8885	15.4425	70.2076	1
5472	86.507	22.9455	20.0269	-26.6833	3
5480	13.9751	7.19659	7.68397	-23.8857	4
5481	12.2553	12.5941	13.0293	34.6651	1
5484	31.4051	20.3409	16.0594	-68.7939	2
5490	11.3275	15.9416	15.9934	-146.947	1
5493	11.8093	16.621	20.1739	56.2572	1
5497	10.9575	21.5591	11.9906	-173.513	1
5500	35.3689	21.9318	25.5439	49.8577	1
5501	38.183	12.2728	25.1878	-36.16	4
5502	33.3422	20.6695	12.96	37.6949	1
5505	28.585	12.7231	23.6392	145.122	8
5513	10.2557	19.1106	5.72379	-33.9611	1
5514	19.0639	14.6859	10.8146	164.758	1
5515	94.3135	17.9523	24.8008	162.45	2
5528	18.8847	7.15196	22.1594	134.909	3
5530	10.8263	22.1348	25.2977	76.2626	1
5534	27.1936	16.8086	14.4466	99.2105	1
5536	11.6981	21.8009	15.9917	133.685	1
5537	63.1954	19.5183	6.47521	155.979	5
5538	11.3222	14.2548	8.18705	-88.6824	1
5539	58.0729	30.3017	20.8215	147.431	1
5540	19.476	23.2265	22.8009	-177.714	3
5545	11.9108	18.6684	20.2039	-44.5932	2
5554	12.0806	17.7309	16.9156	86.2374	1
5556	12.6605	18.4773	22.5209	-170.999	1
5557	28.9191	13.3237	19.821	71.5519	1
5559	26.8682	18.3017	10.6233	-14.246	1
5560	20.8728	14.1905	23.9128	-42.2218	1
5561	21.8505	12.1759	12.0794	81.4695	1
5563	23.2246	22.9623	19.6072	-31.4531	1
5566	19.6403	16.2867	20.3433	-95.7116	2
5567	64.2723	11.5977	23.6592	-131.417	6
5568	21.7663	43.3523	12.9509	48.8769	2
5570	20.6538	22.37	13.8986	11.1562	3
5574	13.0891	27.5221	11.7884	-18.0351	1
5575	26.1754	20.3233	18.7627	126.248	2
5578	12.6056	14.3907	10.3447	-168.338	1
5579	14.9218	13.4463	1.92587	155.425	2
5584	28.4734	28.5842	25.1699	-58.7798	1
5585	31.7241	25.0866	10.9581	-87.7468	1
5586	17.3852	10.7463	10.4958	41.612	1
5587	28.7815	8.54546	24.1692	-96.8266	2
5589	67.1569	15.621	15.807	-42.9734	6
5597	30.7789	13.6866	12.25	149.658	2
5598	15.3288	21.4434	17.1731	-119.828	1
5602	50.5563	16.4264	4.67125	-100.48	2
5607	15.5014	17.8031	17.7727	-107.682	3
5609	18.1776	12.886	18.441	30.1661	1
5613	26.1025	20.055	18.0028	-86.3534	2
5615	18.6232	21.6194	19.7554	-33.6286	1
5619	11.6844	29.7421	22.6638	178.303	1
5624	22.6976	18.47	20.0691	-78.4065	1
5628	15.4969	29.4523	25.7134	12.3198	1
5631	14.8769	17.9077	10.0034	58.3604	1
5635	19.7887	12.4682	14.0659	70.442	1
5638	22.7706	18.6002	12.0222	-134.866	1
5641	38.6161	23.376	20.0923	24.0205	2
5646	12.3654	21.8197	11.9515	145.806	1
5648	19.3522	14.5915	24.8636	40.7454	1
5652	11.2817	6.45749	20.7358	150.702	3
5654	85.6603	16.9813	23.167	-179.344	6
5655	15.8607	16.4466	19.793	65.3002	1
5661	12.6105	16.8846	21.6861	69.2375	1
5662	38.3968	16.1534	13.5369	32.594	1
5666	12.9139	13.4059	15.0912	153.435	1
5676	18.413	13.3264	10.4515	96.2427	1
5678	12.7199	9.82848	12.4286	131.428	1
5681	94.4166	12.3122	15.3919	-145.991	36
5682	14.2452	6.6319	22.3142	-10.122	1
5691	36.915	18.5245	24.1796	-134.858	2
5692	14.8775	26.4728	14.9509	-60.4809	1
5695	15.6869	23.2027	22.8318	-92.9867	1
5699	15.65	22.1804	13.693	155.344	1
5703	97.5699	36.2478	17.7712	149.976	6
5704	27.0369	12.9087	24.7883	76.8722	1
5707	20.3207	18.8568	10.8966	-24.6361	1
5708	26.467	27.6304	24.2188	41.1667	1
5710	43.5528	39.0357	11.2174	128.905	1
5712	15.3547	17.7072	12.309	-177.67	1
5720	22.7566	10.9341	13.1053	-42.8478	1
5721	21.2611	25.6235	10.3477	120.399	1
5723	23.1059	15.8877	7.99285	65.6281	5
5729	18.4851	21.9178	16.1448	12.2305	1
5732	17.6241	13.6222	18.971	-7.42932	1
5734	28.8517	17.7497	14.7763	-151.006	1
5735	27.9076	8.56206	23.215	18.4933	5
5737	78.0666	17.3983	21.7726	-73.7392	3
5740	16.9718	24.5381	24.2725	-44.0859	1
5741	22.7838	14.0716	12.594	52.5327	1
5742	16.4333	8.90592	5.89279	8.55724	1
5743	23.6912	27.8063	6.22345	45.4875	1
5746	22.8361	30.9154	18.6406	-126.542	2
5751	14.5703	14.4484	21.4131	-81.4096	1
5755	26.1741	17.5497	24.4245	-119.048	2
5757	13.2038	14.2485	21.0441	132.542	2
5758	49.4903	20.9207	23.209	7.88791	1
5760	26.1202	20.1898	24.8013	-5.22012	1
5761	13.2931	15.8167	20.8841	-94.9991	1
5763	52.952	22.2245	5.98972	26.1976	2
5767	12.003	13.8548	16.4608	86.8209	1
5771	54.6348	16.035	6.24922	135.193	12
5775	34.5187	21.4572	17.9194	165.67	1
5779	13.4715	12.6098	24.9921	94.3488	2
5782	21.8629	18.192	21.0075	102.602	1
5784	13.2342	12.0547	11.3435	-54.9034	1
5785	13.1018	31.7231	8.40269	-141.277	2
5787	28.7914	21.2886	23.1963	-79.3509	1
5789	19.4237	22.3235	16.3179	125.406	2
5790	16.1959	16.0865	18.6061	121.982	1
5791	38.2028	13.5484	24.9054	-79.4577	2
5802	14.2397	24.5458	11.1309	142.299	3
5803	18.9518	22.6415	13.4811	-18.8567	1
5807	19.9669	19.4472	17.1057	-125.445	1
5808	20.9611	19.2119	6.7817	117.015	1
5810	38.3425	24.6026	21.3646	-109.976	1
5811	24.7921	16.6526	5.21005	153.124	2
5817	35.8361	24.2155	25.0501	-100.127	1
5821	22.3479	17.4218	4.53271	175.536	1
5823	29.6694	18.2264	21.7074	-161.893	1
5825	34.3842	20.0635	17.8089	-152.781	1
5827	20.0742	21.6261	17.4517	-84.6086	1
5834	79.9562	39.3317	4.89488	112.558	8
5835	27.9578	17.1151	13.1279	18.0377	2
5837	16.8488	24.7438	15.7834	63.5236	1
5841	22.2974	16.4475	18.2427	-156.137	3
5843	21.6329	32.9158	13.5678	103.825	1
5847	19.2612	19.4356	14.8737	152.498	1
5855	19.9128	22.4233	13.7509	67.8962	1
5857	13.9591	24.928	22.7386	-128.97	1
5863	13.2779	15.2478	6.90589	96.3523	1
5864	10.0314	31.2047	10.0713	-70.9855	1
5865	20.895	21.2115	17.7416	-14.9393	1
5866	17.3142	9.69371	11.9908	-124.647	2
5871	13.0632	14.835	18.7981	-86.9392	3
5873	14.8216	14.8715	24.3102	12.9566	1
5878	18.1711	21.0226	14.2822	-88.1476	1
5880	53.7126	8.71084	17.7318	-77.9742	3
5886	22.6337	11.9804	2.79123	-160.707	1
5888	39.1646	15.9675	22.9881	-138.908	2
5892	16.4494	15.1044	15.0504	-101.137	1
5899	26.809	36.4384	10.2106	131.44	1
5904	13.2546	19.0602	5.11915	-3.96956	1
5905	27.7424	22.0321	23.7874	18.0898	2
5909	15.7506	19.7113	22.4839	55.2909	1
5911	62.5071	20.4601	24.0131	-54.7039	1
5917	40.1199	14.3787	23.4737	5.85889	2
5918	31.0022	8.90801	12.2903	134.331	7
5920	29.9276	6.37299	9.55727	-63.4787	20
5922	56.872	29.9921	8.83977	177.32	1
5924	11.0454	23.2772	14.5676	-26.9656	1
5927	10.8038	11.8089	16.8557	178.496	1
5934	16.8146	15.4803	10.2601	13.871	1
5935	27.1986	18.0453	15.9207	-165.485	1
5936	15.5502	20.9237	9.33648	44.5112	1
5942	11.6344	16.9591	10.7686	-63.9734	1
5944	51.0326	27.5803	21.7692	-151.036	2
5950	26.7706	11.5249	7.61162	-78.2641	2
5955	39.4656	19.2679	17.441	50.2355	3
5956	15.3016	15.0039	18.7994	179.77	1
5957	78.113	9.60143	24.1837	114.315	7
5962	16.9702	29.6642	16.23	112.669	1
5963	14.5518	12.7447	13.3869	90.1146	2
5964	95.1356	14.8507	13.1673	-170.129	13
5967	13.0114	16.9822	20.9351	162.336	3
5971	39.4165	28.9316	21.3901	145.207	2
5972	46.3898	19.3497	14.3043	66.5442	3
5975	20.5813	14.8605	21.4141	39.8911	3
5976	43.7034	26.9681	25.3032	-76.9217	1
5979	29.1087	35.0267	4.68132	6.08983	5
5980	31.7505	36.631	19.8436	-109.097	1
5987	13.6077	20.5338	23.3421	152.381	1
5988	28.7657	21.9385	5.99685	-76.6882	1
5990	41.7279	30.2863	19.583	134.72	2
5991	30.2016	8.39853	3.27558	-98.7744	3
5994	27.5323	17.8331	23.2694	-40.9035	1
5995	29.7518	17.2	14.9917	138.715	2
6002	64.3991	27.0819	16.6313	-89.337	1
6008	36.1313	34.5037	2.037	22.8207	1
6017	23.2834	19.5384	24.9284	-52.9525	2
6019	10.9631	12.2312	7.19572	-23.3875	2
6020	16.8422	10.7724	23.1602	-172.675	2
6023	32.6189	24.1351	7.32072	165.184	2
6024	51.049	38.1677	20.8036	-110.639	1
6032	30.9364	10.1087	19.3093	-179.112	2
6047	14.4126	26.0518	7.91854	76.9057	1
6053	26.5658	18.7348	17.43	-116.613	1
6062	30.9559	27.5094	22.2736	84.8836	1
6063	74.4888	17.8557	16.3835	43.9155	3
6064	20.7054	11.5768	19.9964	-65.7613	2
6068	16.3325	9.51194	25.0665	35.6642	1
6075	32.2206	13.8485	6.05745	103.25	3
6084	15.0774	13.7159	19.4226	32.0069	1
6085	35.3695	19.9488	23.082	164.929	1
6087	29.9918	14.8185	22.6343	-102.351	1
6088	19.2269	24.6312	11.5131	-102.82	2
6089	19.4893	15.1867	20.4098	-105.575	3
6092	13.0918	14.4497	15.9459	36.3499	4
6093	20.0195	26.9036	20.1614	138.024	1
6097	26.2176	16.7358	18.6422	178.194	1
6098	13.035	15.4051	5.38896	-131.167	1
6102	14.8104	28.5899	15.0791	166.868	1
6106	22.5189	20.6184	24.4455	121.894	3
6107	16.4621	22.4669	10.1355	-46.4533	1
6108	24.5934	15.5522	20.4404	12.7743	1
6112	31.2912	18.8772	24.9978	-18.7729	1
6120	38.4847	8.61873	19.2478	57.242	2
6125	46.271	20.8909	9.8039	170.935	2
6127	29.9645	19.9454	22.9727	-119.734	1
6128	12.1628	15.5365	22.8885	-35.6724	1
6131	24.57	14.2443	22.6997	39.8732	1
6133	22.0039	12.7892	19.1182	-13.6432	1
6134	35.6335	18.3105	13.1152	39.4635	2
6144	12.9975	16.3425	1.59697	-179.957	1
6147	20.6379	22.1864	21.4343	-40.8364	1
6148	18.2978	8.20732	20.878	160.522	2
6149	75.4536	17.415	21.3772	-1.45091	1
6155	15.3814	16.6153	12.3258	102.572	1
6157	11.4283	20.7383	21.0581	-8.46012	1
6160	10.8324	33.2604	16.5765	17.3352	2
6164	18.7325	12.6125	1.82452	62.2522	14
6170	10.1453	16.2779	20.0389	145.507	1
6174	33.358	20.8099	14.7871	-92.8966	1
6180	22.369	15.6681	11.1867	-177.23	1
6182	11.1578	29.2587	16.1436	-74.4945	1
6186	25.5273	26.4305	22.4184	8.2379	1
6190	40.3865	12.5619	6.27817	30.2495	1
6191	25.1918	13.02	18.5048	8.31394	1
6192	14.9501	13.7168	23.7435	-17.5988	1
6193	16.2344	9.24159	17.0074	151.214	1
6194	12.2171	25.0142	16.9017	-150.485	1
6196	14.501	15.4326	10.6095	-95.2586	1
6200	21.0402	12.068	15.4366	-93.778	1
6205	12.8796	11.8792	7.98213	38.4279	1
6206	19.357	26.8766	9.29146	36.6504	2
6209	10.6467	18.6219	21.7721	40.5241	1
6216	10.9761	16.8887	21.8982	51.6007	1
6217	13.4368	21.1661	16.3592	-175.483	1
6218	32.396	21.0927	21.2581	49.4762	1
6219	11.8498	17.2154	22.5847	174.981	1
6224	11.1802	14.9677	11.3171	137.594	1
6225	11.5694	26.1371	15.2396	-87.9847	2
6227	15.5954	26.8307	22.8242	131.755	1
6229	29.2848	13.8933	16.7917	87.7987	2
6230	20.9993	12.4556	23.4111	-63.5939	1
6235	20.8232	15.9157	14.8988	154.712	1
6239	29.716	21.7895	25.5026	-35.6643	1
6241	79.1694	20.5775	21.263	-77.5078	8
6242	13.8139	30.1227	11.734	100.553	1
6243	56.1302	17.3778	19.9075	-143.973	4
6245	21.8019	13.4908	15.5875	-87.1901	1
6250	25.9492	8.80659	11.8597	73.7415	2
6253	16.947	5.03173	18.1194	-43.3221	5
6258	28.9648	22.4143	24.0312	164.768	1
6262	13.5895	26.0687	22.2968	-55.2149	2
6267	72.2902	13.1396	23.7333	130.195	1
6270	28.1057	41.292	19.7258	-136.014	1
6275	17.3576	57.4698	17.1564	164.882	1
6283	59.1131	14.8166	23.8573	88.575	4
6286	15.3886	37.7951	23.1162	65.8693	1
6287	66.2597	21.4807	22.1616	-83.2769	3
6291	35.6063	17.9907	22.3965	-102.512	1
6292	34.4404	15.8733	8.96879	-64.4629	3
6294	14.9346	27.2813	10.4338	-170.567	3
6295	28.1005	23.0263	11.2826	-74.408	5
6304	12.3859	12.1018	24.6919	-116.012	1
6307	11.3966	37.5601	14.608	143.468	1
6309	29.685	32.3163	22.1632	-153.145	2
6311	12.6091	15.8766	16.1087	-172.684	1
6316	13.2467	31.9483	14.6896	-18.3135	1
6323	33.6438	12.0752	14.8171	-20.87	3
6325	34.9679	17.4375	10.0576	-158.252	1
6328	18.4797	20.2649	22.9917	-156.828	1
6330	33.2674	11.1302	12.2681	171.577	4
6333	70.5372	21.9182	23.3546	-48.8987	3
6342	55.619	23.1268	6.9837	176.228	6
6346	15.7441	23.4389	13.4579	-102.482	8
6351	17.004	22.2825	15.9031	-15.6191	1
6354	18.5208	11.1505	13.7167	-61.6285	22
6365	18.5242	22.9754	22.2758	31.4772	4
6369	19.4613	13.0847	12.0428	13.0577	1
6370	14.016	17.2537	18.5464	67.84	1
6377	12.7743	19.2101	14.3385	-43.1018	1
6381	31.7922	15.1792	13.3905	-39.073	1
6382	12.2441	22.221	21.3141	-85.0515	1
6383	12.095	32.4527	7.38379	-140.835	1
6384	10.5092	11.4416	20.5005	172.984	1
6387	10.8411	10.7388	2.63948	-82.7536	1
6388	32.4382	13.0561	19.1059	-80.9776	7
6390	10.2503	12.3468	21.1907	98.7966	1
6407	16.8215	16.5932	14.0013	34.8098	1
6409	55.2294	32.0145	22.0017	71.5725	4
6410	44.8102	31.0029	25.0446	1.58078	1
6412	56.5526	10.2122	19.6758	137.388	3
6414	19.6122	19.6492	15.1604	-163.827	8
6415	21.273	35.1438	15.7949	-0.405625	1
6420	13.0142	17.1161	23.9963	-18.3159	1
6421	15.2514	21.8163	19.8895	-45.1732	1
6422	10.9032	20.8369	17.5337	-32.8619	1
6423	21.8127	40.7811	21.7508	-138.399	4
6427	80.2069	23.3663	18.5045	177.57	2
6428	10.7079	26.5022	16.5822	60.6429	1
6431	38.5072	11.6135	7.65959	172.153	3
6433	13.2647	18.463	21.3801	148.96	1
6434	61.5134	11.0425	4.93869	-95.7471	3
6436	14.3867	14.0574	15.574	-21.4918	1
6438	30.3604	24.538	14.8263	-1.49325	1
6439	13.7879	16.3688	2.8997	134.856	1
6445	10.8767	6.61883	8.81469	73.8195	1
6446	10.8605	9.41176	17.5115	73.9745	1
6448	21.1382	14.0296	18.7128	76.5	2
6449	18.76	13.1948	2.17877	123.832	1
6451	11.8759	10.762	18.4367	50.3627	2
6452	17.8389	12.1753	21.1373	158.6	1
6454	13.6156	20.5735	9.62306	174.619	1
6457	11.9369	9.5573	8.83545	-14.0605	1
6461	34.5157	19.5202	15.0228	-77.5423	1
6462	14.0023	13.068	17.5928	120.469	1
6463	11.6179	11.0097	22.8141	-40.185	1
6465	34.1973	23.138	21.0561	-36.1819	1
6468	87.1781	14.7693	14.7068	-97.2446	5
6470	19.3319	33.3648	23.4449	162.174	1
6471	46.2485	13.5508	13.9966	29.2416	2
6475	35.8286	18.8945	17.2599	-143.006	2
6476	76.4635	25.748	24.2274	-33.1795	3
6478	11.2124	9.41898	18.9465	-91.6273	1
6481	33.9885	18.3185	23.5311	-129.724	1
6482	21.6783	22.3344	17.3446	116.618	1
6484	11.0773	33.8387	23.8201	-115.273	1
6486	21.6312	20.2675	12.8113	-72.6797	3
6488	26.5689	23.7418	12.008	63.9592	2
6489	13.4539	13.2345	15.6038	-89.484	1
6496	24.0874	16.5313	21.9278	73.5714	1
6498	12.2448	16.3341	17.8195	-150.249	1
6499	97.1034	18.4686	23.3988	20.7048	6
6504	11.6222	21.1672	15.0804	-32.1413	3
6509	10.0096	14.9791	18.4862	-172.338	1
6510	50.2324	19.6955	6.62553	131.443	2
6512	16.2126	11.5317	19.355	28.806	1
6517	27.6103	16.5543	22.8093	-3.50346	2
6521	28.1928	24.1291	20.9984	99.4725	2
6524	16.0301	18.4474	22.0767	151.4	4
6536	38.3766	24.873	22.6764	-8.5597	1
6538	12.4807	20.1558	24.4283	71.3625	1
6541	13.8699	22.8254	7.81525	-164.966	1
6546	13.7812	32.696	24.0118	-5.57426	1
6549	32.4861	34.6561	9.24984	-27.646	3
6553	25.3405	12.7835	21.6825	4.53484	1
6562	25.1183	21.9114	1.15733	47.5493	1
6565	15.519	17.7318	6.88532	-90.7366	1
6569	23.7767	17.1373	23.7685	133.39	2
6571	10.4028	21.8184	10.4003	-133.48	1
6572	15.5655	25.5238	24.6047	55.6494	2
6574	25.113	16.4698	12.4935	121.344	1
6576	23.8268	22.2989	20.5801	-87.9721	1
6577	21.0979	18.072	24.5251	-177.016	1
6581	18.8186	22.6857	23.0716	-155.74	1
6582	33.3914	20.105	23.3511	47.6316	1
6589	12.363	25.1553	19.4741	64.7564	1
6592	43.8834	23.4246	22.4998	94.8358	1
6593	25.4774	10.7018	12.8431	20.5467	1
6608	11.2956	13.2229	19.252	-19.6358	1
6610	30.0477	9.81385	19.8557	178.236	11
6612	40.7054	16.9473	22.3161	38.4399	1
6613	13.6936	35.1079	15.8292	-19.9699	1
6616	31.2943	10.8236	14.6423	117.871	1
6620	11.2608	12.8007	19.3853	-156.677	1
6622	12.2281	20.6172	16.4313	-24.7079	1
6623	61.8843	29.1008	21.6221	33.8404	1
6630	29.8331	12.9658	19.5017	-118.401	2
6634	13.1484	20.04	14.3181	24.7024	1
6638	13.0047	12.7032	17.4472	-104.83	1
6639	23.4728	25.7689	19.5633	21.1905	4
6640	12.686	25.3739	22.1633	-99.0269	2
6642	20.4461	25.7434	8.78934	-74.5229	1
6643	31.2664	23.3916	23.2256	68.594	1
6648	20.3918	21.6281	14.7325	-77.6663	1
6649	16.1759	25.4144	25.5478	64.6027	1
6655	16.2554	24.3583	17.4645	86.7295	2
6659	15.4265	23.7475	16.5912	-102.915	1
6660	11.2652	17.6211	14.8218	-22.2368	2
6664	39.5983	14.1345	16.228	20.3272	3
6671	27.4257	28.0458	10.6495	-76.6156	2
6674	18.2852	21.8634	12.8537	137.3	2
6676	13.3532	21.9646	15.6476	20.729	2
6679	21.4486	14.4429	25.2592	100.303	2
6680	19.3671	13.7607	19.8571	9.28373	1
6681	27.4175	20.1702	24.0612	-52.0804	2
6683	31.7474	35.3135	24.7705	-148.109	1
6694	45.5456	14.8802	9.9994	73.1542	1
6695	22.5004	5.71816	17.3849	-19.8179	5
6700	24.1367	18.1909	13.4046	-8.87463	1
6707	20.5496	21.9312	17.552	166.339	1
6708	56.4836	7.71278	7.8342	124.512	4
6710	17.6016	8.16936	4.97062	130.384	1
6718	25.0671	30.0072	17.2824	42.3955	1
6721	67.4347	40.2835	18.938	-85.3094	3
6722	97.7537	17.366	14.5301	101.388	7
6724	26.6506	26.395	2.56467	-161.948	2
6730	27.3826	16.4839	5.61424	-159.003	1
6731	24.6497	18.6291	22.0614	139.877	1
6733	40.7325	30.2948	24.0161	-105.782	1
6734	27.5933	20.8041	12.3329	149.992	2
6738	18.5768	32.7543	16.7703	-159.355	2
6740	19.2735	15.2992	10.9143	-142.37	2
6743	26.1012	26.3923	2.52688	-15.7187	2
6744	10.9683	38.0456	25.5006	-94.5743	1
6746	18.8414	23.9491	17.761	53.9185	1
6748	24.2007	27.7123	19.9054	166.862	1
6749	23.6852	15.5726	8.89402	-118.945	1
6751	53.8749	22.5553	15.6431	161.88	13
6752	47.3692	22.3127	5.2848	-91.261	1
6753	40.2449	24.3895	13.6132	7.45353	1
6754	21.3239	21.8699	11.1372	174.619	6
6756	31.824	29.8614	18.6805	-64.0902	1
6759	43.5056	20.0524	10.2194	-133.519	1
6761	87.0377	16.4575	6.7917	-160.521	4
6763	50.7143	17.9083	4.66111	-174.052	3
6773	23.3014	15.0557	4.66935	21.8299	1
6774	54.4116	31.8326	24.9535	-38.6985	2
6775	13.344	20.9446	19.1178	50.7208	1
6779	12.0524	24.6734	16.5482	-21.1858	5
6784	11.4927	30.0068	15.1268	-12.6731	1
6785	11.2168	15.8992	19.3031	-140.945	1
6787	14.3849	20.574	3.16339	179.66	1
6795	14.8707	14.0029	18.0843	148.168	2
6800	25.3274	19.3479	24.4684	-4.7878	1
6801	16.3298	27.6433	23.9669	-67.9993	1
6804	28.5051	19.9427	24.2056	-151.981	1
6808	13.5202	35.2367	15.6828	78.515	3
6814	13.5831	11.5884	10.3906	17.753	1
6817	14.3548	20.3403	18.1235	8.5664	1
6820	10.9896	13.2895	20.6277	-71.9313	1
6822	12.0755	15.5712	23.861	172.038	1
6827	32.9578	22.1976	18.3849	-37.1428	1
6828	18.2289	22.5577	19.3847	115.895	1
6829	28.6698	23.6662	25.7591	-166.448	2
6831	13.5262	36.366	5.56278	31.19	1
6837	21.106	22.1747	21.351	-158.675	1
6838	17.0967	21.7069	25.7778	-79.7495	1
6839	19.9621	23.3955	18.3289	-156.134	1
6840	55.381	16.3098	13.8191	103.444	1
6841	24.6529	17.8418	10.1622	89.7455	1
6846	30.3612	43.0394	14.3998	125.657	10
6847	62.0778	20.6341	10.3635	84.5434	3
6853	16.5666	16.4785	22.5719	-156.789	1
6854	73.9481	20.138	17.1045	135.484	10
6857	16.371	11.3406	10.941	98.6438	1
6860	46.3729	23.7523	23.9095	-88.8819	2
6866	29.6394	11.5787	24.4027	138.435	1
6868	22.4087	19.2752	23.0935	-85.0455	2
6869	14.5578	21.9282	16.2117	-56.3221	7
6870	51.5512	19.438	12.7271	106.148	1
6872	29.8311	18.4479	17.8333	-21.1452	1
6875	22.5709	19.7332	18.9595	160.683	1
6890	24.6646	28.0359	10.7792	52.7758	2
6893	12.5797	6.29305	7.80455	-18.3006	4
6895	19.232	22.0773	24.637	-111.604	1
6901	48.7471	51.3165	13.8886	-61.6648	1
6903	13.9195	34.684	3.99165	99.1312	1
6908	10.1074	10.8396	21.1435	-28.756	1
6918	12.5035	18.2626	21.7807	-20.96	1
6924	10.1702	13.4848	11.5178	98.2443	1
6927	32.8748	15.3991	15.9837	12.02	5
6933	22.5118	19.12	17.1695	28.2431	1
6934	14.1687	32.4976	4.41871	178.549	1
6935	20.7713	17.4103	18.8231	44.5911	2
6940	34.9566	24.7513	25.1992	35.382	1
6942	21.3484	14.3347	2.49032	80.2673	2
6947	12.4045	25.8653	13.4038	-76.7765	1
6948	36.6512	16.7868	11.2415	43.8729	1
6950	30.9188	18.1557	9.03047	-126.26	1
6951	18.8428	20.8729	22.2106	97.0953	2
6955	19.6465	25.061	19.1252	-45.4407	1
6969	11.4806	30.2063	19.1957	-101.371	1
6971	11.2848	16.9746	21.5197	-107.67	1
6974	17.5728	21.0065	23.6386	152.974	1
6979	16.8427	14.9448	23.9903	-36.4918	1
6981	17.6826	17.7741	15.1161	100.916	1
6988	33.4022	21.7485	18.9838	-144.002	1
6994	20.8945	24.0705	13.7315	25.7331	7
7001	24.665	23.2373	21.5134	-110.69	1
7002	66.7159	17.4728	12.3853	-169.834	3
7004	10.16	12.7281	14.2288	-110.265	1
7005	12.9259	24.6611	25.1013	-25.0614	1
7006	13.577	18.2726	2.55116	-102.407	1
7008	16.9951	42.5594	17.507	-66.0743	1
7009	30.1851	22.5153	23.2077	-171.865	2
7011	71.6071	13.1504	7.97924	74.6165	5
7014	14.8596	14.4361	19.7262	50.4336	2
7016	20.4018	23.9567	18.4791	68.3177	1
7022	13.3821	11.754	24.4802	-2.3659	2
7024	22.4893	11.2507	22.4431	-85.1308	2
7025	22.7643	13.2069	15.6256	-109.508	1
7038	84.0252	17.7676	20.7446	103.957	2
7043	18.8142	16.9662	11.7579	-173.717	2
7044	22.3481	17.7009	4.70933	-142.4	1
7045	30.5453	22.8919	18.634	20.8936	1
7055	68.4253	24.4367	7.92636	-166.069	3
7058	25.444	12.0181	7.46542	103.606	2
7061	18.0622	10.1942	14.3679	169.447	2
7063	23.0499	16.7399	25.4526	-145.077	1
7065	92.8314	18.2781	9.37654	112.873	6
7074	30.4834	21.1543	11.88	84.2828	2
7075	10.5932	28.9855	22.9333	-171.54	1
7078	23.6885	20.732	4.17919	-150.71	1
7079	14.1279	14.566	24.7868	93.6682	1
7080	35.9431	31.5797	21.0224	123.202	3
7081	34.6524	19.1296	25.2417	-56.6542	2
7084	13.6878	15.3727	18.6171	-68.0906	1
7085	13.5666	14.9708	14.938	149.449	1
7089	11.8963	5.69638	18.3829	-0.219551	1
7093	12.4818	10.706	19.5112	63.3923	5
7095	21.7946	35.815	21.4163	-108.806	1
7096	20.9567	33.4493	18.3265	-150.949	1
7097	15.0109	23.9744	13.1748	79.839	1
7098	16.3967	13.1709	11.0946	173.843	1
7100	17.8614	14.7236	25.0202	-109.751	1
7101	12.8007	34.1306	22.0338	-157.328	2
7102	40.1397	17.8259	17.333	-41.5846	4
7103	19.7957	18.4784	6.24178	141.597	3
7104	61.6375	19.0316	9.47092	-57.0281	2
7111	13.911	37.1472	13.005	-157.093	1
7112	14.6157	13.5123	17.2615	103.019	1
7114	12.783	15.3151	19.6455	108.782	1
7116	69.6437	22.4818	17.7699	-44.5074	1
7119	60.4986	22.4196	23.4098	-13.6539	3
7120	20.3653	21.983	24.3289	53.2374	4
7122	23.9804	22.5034	22.8248	67.0527	1
7124	43.9621	12.6986	22.0595	-41.5702	5
7127	91.1933	19.5996	16.2066	-65.3731	3
7129	24.8495	18.1851	19.0508	30.731	1
7130	13.115	28.9496	22.8885	32.3298	1
7131	10.144	15.6834	16.9679	127.605	1
7134	24.0074	12.3181	13.5155	117.785	1
7138	33.1195	25.3089	11.1527	-73.2032	2
7139	25.1276	19.2145	12.9853	-88.8363	1
7143	38.4774	27.3194	13.8775	-111.215	1
7144	11.0619	15.0628	11.946	124.972	1
7151	46.0271	25.1505	12.6235	32.8126	5
7154	24.0578	15.789	17.6035	151.821	3
7155	26.6339	27.4731	11.9291	141.164	7
7157	29.4052	11.6451	0.762842	164.663	2
7159	28.5859	51.6816	11.8544	138.998	4
7169	11.2265	15.1939	16.8335	-144.86	2
7171	56.3954	11.4407	22.359	-51.2654	4
7177	96.3937	13.8964	21.1692	-19.8508	4
7180	10.9577	9.40301	5.92162	4.53121	2
7181	27.6979	32.1765	25.7721	4.2114	1
7187	14.2073	11.7633	23.1411	49.6211	1
7191	18.2701	15.7777	12.1402	-22.3794	1
7194	15.9754	24.3564	1.72673	35.851	1
7196	36.0926	25.1923	15.3489	-78.3024	1
7198	12.1849	22.0308	21.1546	-102.602	1
7205	20.0584	18.5162	19.1486	-134.752	1
7208	49.3657	18.7164	18.6874	-49.5631	3
7216	21.3232	15.7839	25.2613	143.921	1
7218	27.4903	8.32529	8.69963	-61.7952	2
7219	10.6171	12.1539	3.95412	-35.1017	1
7224	10.6467	23.9128	20.0701	-171.75	1
7227	19.7015	12.6533	13.3028	-137.654	1
7235	92.3444	16.2956	25.4888	-20.3267	12
7240	45.2496	23.8027	18.1862	153.048	1
7241	15.5565	15.5207	3.86609	-169.93	1
7242	18.6406	15.5216	21.1499	-120.031	1
7247	35.5897	17.2479	4.40787	-113.87	8
7256	11.8619	29.0781	11.3355	27.2822	1
7260	11.6484	21.0982	2.76156	169.629	1
7262	18.7449	22.2837	23.8911	74.7162	1
7265	31.6721	24.4507	21.0124	117.363	2
7266	96.8219	18.043	20.7996	22.8572	3
7272	43.594	16.3548	13.6788	50.4003	2
7277	35.6955	19.6661	22.1426	29.0032	1
7278	11.5603	16.8397	21.6072	24.9006	1
7280	11.3474	29.8341	12.6585	122.864	1
7281	24.4525	10.4543	18.6606	83.3756	5
7284	16.5571	13.3289	24.0918	-74.7461	2
7295	11.5991	19.4498	6.90235	177.746	1
7297	10.6504	25.8726	22.1396	78.0179	1
7298	25.4811	16.7367	12.7317	-107.065	1
7300	45.4071	23.4385	22.7188	169.534	1
7301	14.6164	35.5495	22.8877	-102.237	1
7304	16.2617	17.5118	15.7068	-28.351	1
7306	28.783	18.9016	14.6473	-41.7211	1
7313	11.8122	7.98167	19.7325	29.1202	1
7315	19.5837	13.3519	19.1054	-23.1553	1
7317	60.1391	23.6473	12.0612	92.5755	2
7319	11.6411	11.1615	22.0643	83.1648	1
7320	12.057	8.20378	23.0316	73.4133	1
7322	20.6962	30.1723	11.4675	-30.1437	1
7323	12.3502	10.038	10.9536	-173.647	5
7324	10.9553	25.9836	5.57457	-134.797	1
7331	26.1433	30.6701	19.3276	157.889	1
7333	16.0188	8.54093	9.68084	-140.911	1
7339	12.2886	14.2695	20.2164	26.0503	1
7340	33.7497	21.4261	23.4694	170.876	2
7342	13.8973	15.1952	15.2145	131.029	1
7343	88.2396	24.1611	18.3609	-5.4566	4
7345	33.9539	19.7081	16.156	-168.15	1
7346	17.8938	14.6859	19.995	25.4106	2
7350	27.8927	45.6	19.219	-62.0302	1
7351	19.9264	18.9041	14.867	53.4842	1
7352	18.2499	14.7574	22.0059	66.8356	2
7353	42.4056	20.7947	6.63786	-71.8006	3
7354	33.4533	26.2795	8.76628	171.861	1
7355	11.9279	15.8743	13.5276	62.0374	1
7357	10.6952	19.0029	5.70117	-32.5383	1
7359	25.1454	20.1609	5.6049	-147.23	1
7367	17.3957	22.8193	20.3753	-41.5651	1
7368	17.8107	12.9143	19.1667	-109.654	1
7371	19.1078	10.985	15.3225	-175.367	3
7372	34.5383	19.2323	12.2941	-161.13	1
7375	19.769	23.1397	24.5938	-52.7727	1
7378	61.0877	21.1631	23.5359	95.622	2
7383	13.3049	22.8888	22.7654	32.7377	6
7388	13.9694	11.6754	18.4504	115.114	5
7390	19.4545	16.773	24.1709	-65.2323	2
7397	64.6815	20.3559	12.0118	-60.4414	2
7401	43.3453	23.3548	15.2435	-133.051	2
7403	10.7237	15.7247	15.2276	-30.1105	1
7404	20.9151	27.5524	9.74101	176.76	1
7405	16.4711	16.6397	22.1882	-128.415	1
7408	26.8842	13.2189	21.6507	-127.103	1
7409	41.0899	23.3125	6.89607	-73.6818	1
7415	10.0435	28.307	15.6498	-54.6208	1
7417	18.616	17.784	9.23685	3.95806	1
7418	10.1995	16.0169	17.144	-23.7776	1
7420	20.4046	11.1484	9.92615	70.1017	1
7423	80.3406	23.2354	14.554	17.4431	3
7425	25.0847	29.0113	1.46781	117.903	1
7428	16.1758	18.5297	17.464	115.114	1
7429	51.5147	21.3139	19.1299	-101.432	2
7433	11.6276	10.7597	9.989	44.8242	1
7434	37.4655	25.8997	16.5724	-77.0934	2
7436	44.4501	17.0886	23.9406	-9.72898	2
7438	17.4141	11.7701	25.0044	-99.4885	1
7442	16.0963	18.2774	7.33207	-67.4274	2
7451	12.2615	34.4219	19.3647	-152.426	1
7454	38.889	19.4032	8.808	-107.829	1
7455	24.0225	14.0204	19.6574	-78.4312	2
7456	29.2234	16.5149	10.7899	43.9357	1
7458	29.9209	21.119	19.9725	3.78899	1
7462	12.905	15.3075	18.9878	-77.051	1
7463	28.5717	11.4898	19.8418	144.876	9
7467	43.5705	18.1849	11.8346	104.701	2
7470	23.2432	8.40578	14.6937	138.719	2
7471	25.8831	16.7413	25.5295	-37.9522	1
7473	25.7692	38.9064	24.3184	64.0586	1
7475	36.7733	13.5369	25.0367	-78.7741	1
7476	49.1033	23.4875	13.3933	97.747	3
7478	13.1108	25.2058	16.4039	-22.1897	1
7480	25.5649	15.5682	15.2534	-1.2825	1
7482	13.2434	17.1649	20.2064	37.3986	1
7486	12.7199	11.1469	12.5917	58.0472	1
7490	23.8776	12.66	5.23171	72.7377	2
7491	17.9088	28.9551	17.9016	-40.4573	3
7493	27.2839	17.8826	19.5899	41.2363	2
7495	21.6846	24.0857	18.0228	-90.2544	1
7499	23.7874	20.4816	1.10128	171.384	1
7502	10.8052	25.0512	24.4422	-88.9005	1
7507	16.0889	10.2192	17.4123	-15.1695	1
7509	24.3674	24.9445	20.0531	-154.713	1
7513	17.7014	18.2576	22.4012	-148.175	4
7524	23.2568	10.93	18.7369	96.3521	1
7525	12.7659	11.7347	23.7634	-155.844	1
7527	21.8109	46.3796	19.7966	135.723	1
7528	48.0565	28.3863	23.5974	-159.313	1
7531	20.3458	23.8453	16.7624	110.248	1
7532	36.0149	16.3207	13.5198	82.2792	1
7534	22.2257	18.3948	12.6186	79.368	3
7537	12.4007	31.2157	21.6874	-45.5502	1
7540	24.9253	16.8041	25.5837	113.206	1
7541	30.1527	29.0589	25.7275	-129.743	4
7549	31.8526	15.6276	15.8246	121.491	6
7556	12.2063	18.4931	11.5846	-98.1889	7
7561	20.7823	34.5984	15.1908	166.677	1
7565	89.2854	18.0169	4.32031	-10.0555	7
7568	11.3606	20.8327	22.4219	-151.185	1
7572	10.4468	16.8438	13.1115	172.322	1
7576	40.0485	28.0593	18.9374	-133.564	14
7583	35.6381	17.4199	15.4942	109.203	1
7585	39.86	17.9815	13.2497	-21.4558	2
7586	43.3667	4.66285	9.38317	-26.7226	24
7592	12.8139	10.6999	8.94467	89.8261	1
7593	69.5424	17.0874	5.99364	76.9205	2
7610	20.5553	15.495	13.5203	-110.409	2
7616	19.666	15.4117	22.0997	-40.7611	1
7619	17.9425	19.4352	18.586	92.7785	1
7623	21.5217	16.8256	9.34902	167.415	3
7625	35.384	16.352	23.6398	-171.187	1
7628	89.6695	24.4104	17.3225	-17.4968	4
7629	15.8608	14.0387	25.0615	-10.3747	1
7631	20.5953	15.7846	20.7123	88.7604	2
7632	30.1465	17.15	9.74773	-134.82	3
7633	11.6873	13.3997	25.0463	-65.0623	1
7635	19.0764	18.7211	13.5281	9.21207	1
7638	18.5047	22.2775	7.03372	-11.8902	2
7639	14.7023	36.1319	14.0548	136.086	2
7642	37.385	8.41827	24.2644	-2.09388	8
7643	18.9371	25.7229	22.0417	52.4064	3
7644	16.1235	12.8901	22.7612	-107.429	2
7647	19.9141	16.4794	15.7394	-49.055	1
7654	23.7231	19.9101	19.4286	30.8464	1
7656	28.3612	24.5007	23.8166	-3.26835	2
7658	18.6142	10.085	7.11614	176.738	3
7664	10.0906	21.5871	9.30929	-169.19	1
7670	45.0721	5.83844	25.3289	-70.3013	21
7672	29.4329	23.5104	22.1339	78.3	4
7677	20.6089	18.8919	19.5728	-61.4261	2
7682	60.1868	22.8965	23.3887	-29.2928	2
7684	28.7194	18.1059	18.3058	-179.91	2
7688	12.5995	18.5018	25.6047	-43.8297	1
7689	11.1466	19.7689	11.2315	-87.8804	2
7690	11.2461	26.1261	10.1583	95.8951	1
7693	13.4766	9.01449	16.8047	-25.7643	1
7696	13.0337	28.2186	16.0801	-119.219	1
7699	63.623	10.1062	21.1353	-18.667	4
7703	58.2437	15.2542	11.0577	-65.6077	2
7709	19.6593	19.0132	24.8966	94.1947	1
7721	23.937	25.5333	19.2665	-137.416	1
7728	15.1334	22.7523	16.3263	144.436	1
7729	11.0407	12.6856	10.0004	98.4173	1
7731	42.9224	30.6075	9.86092	177.538	2
7732	14.4284	31.4388	24.7748	16.2325	4
7736	12.7607	17.4504	18.3418	78.2378	1
7737	13.6457	16.2276	21.4027	-123.08	1
7739	39.8302	18.3578	25.5069	-141.031	1
7742	28.7594	25.5942	13.2565	-146.915	5
7745	20.0168	12.4594	25.2403	-128.495	1
7746	46.0697	20.2883	5.32088	-48.8064	1
7747	10.376	15.6854	23.7355	145.558	1
7749	39.9852	12.7112	3.63969	-64.3034	1
7752	19.4929	14.5348	18.9792	178.015	1
7757	18.472	23.6983	17.4235	-78.9031	1
7760	14.1117	20.5458	2.57826	12.57	1
7762	32.0808	21.9787	14.4474	-86.6998	1
7763	26.5105	14.6358	0.688892	-99.2037	1
7764	18.3046	12.7815	22.995	-56.5207	1
7767	16.8168	11.7415	8.99381	-86.0811	1
7770	10.0813	15.7066	8.81679	92.0291	1
7773	79.5302	8.34794	16.8614	-67.0316	7
7774	20.0742	16.0157	25.691	18.6624	2
7775	11.0727	23.1603	18.5625	110.277	1
7777	24.2255	20.3295	12.736	85.371	2
7778	22.6097	10.9046	15.1855	61.9783	1
7782	12.9863	7.66586	24.5247	170.15	1
7786	10.2908	16.2355	4.19365	-142.998	1
7791	14.3564	19.7854	22.0792	88.6385	1
7796	11.9235	21.8086	5.64556	-7.37382	2
7797	21.338	17.449	20.1426	137.359	1
7798	26.1744	25.648	24.9297	-168.834	1
7801	12.9766	25.1516	11.1915	83.2009	1
7808	18.8864	21.4689	4.14607	-132.379	2
7809	14.5529	15.9831	9.41919	-154.457	1
7817	36.8348	17.6377	11.8593	80.1322	2
7820	14.435	28.9692	10.7575	-12.2757	2
7822	18.2607	15.689	11.0728	15.7301	1
7824	23.1697	18.8106	18.5301	32.2063	3
7830	12.1164	15.1422	18.3387	-137.924	1
7833	52.2117	19.6876	14.4132	-46.1341	2
7834	14.2631	19.9829	12.8359	-47.2452	1
7839	14.019	17.2999	12.0714	118.994	2
7840	13.8125	27.2696	18.9646	45.126	1
7847	13.3264	17.1773	7.77097	-126.71	1
7852	10.4326	16.69	15.8991	-4.89601	1
7853	43.0646	13.0829	9.31197	-74.9734	2
7854	13.6023	7.16124	14.3532	32.2759	2
7855	51.6444	17.8924	21.9388	-33.3177	2
7859	10.9999	16.0243	16.9689	-144.987	1
7860	14.5973	11.1917	18.3785	36.1447	1
7867	24.6579	27.4711	21.2515	-1.30558	1
7880	31.4363	27.3222	17.7	-173.274	1
7881	13.499	13.9722	20.2428	-138.205	2
7882	18.8837	24.536	15.0783	-81.5949	4
7889	42.7641	13.2803	19.6744	52.9651	2
7891	12.6686	9.0921	17.9132	-29.5375	4
7892	28.18	25.7472	13.5335	57.1693	1
7894	19.7839	13.3787	13.629	148.317	1
7898	36.5501	16.5099	25.7117	-128.347	2
7900	84.6183	16.5833	17.8936	33.6255	2
7901	13.6029	9.41149	15.7286	-37.1682	2
7906	13.0152	14.6933	13.3397	163.742	1
7912	28.5452	22.5719	23.5384	-69.3622	1
7915	14.9979	20.1234	24.8039	-7.62888	1
7918	11.4157	16.8601	23.7536	-49.7861	1
7919	16.0911	19.8233	25.3245	72.1877	1
7920	44.1204	34.9867	7.36527	116.501	1
7921	33.6404	15.9004	15.8224	-39.5982	2
7922	37.7818	15.7296	13.2209	57.138	3
7928	27.2451	22.6627	7.04517	-157.66	1
7930	25.762	22.2434	16.0083	-82.4411	1
7934	16.3134	27.0043	14.1115	47.4008	1
7935	14.1774	17.2394	20.96	50.5525	1
7936	29.2631	17.0707	18.8033	68.3665	4
7941	16.704	15.1505	22.2585	-139.965	1
7942	18.6087	23.9019	24.1596	56.694	1
7943	12.7903	11.7757	22.6114	163.99	3
7944	25.3746	21.0392	22.2579	-109.209	1
7946	27.6567	19.8469	10.0128	-0.928592	16
7948	10.8008	18.5609	24.5076	66.0948	1
7950	23.5679	17.2561	6.98784	60.1601	1
7952	25.6489	19.0301	20.4955	-38.4675	1
7955	33.4743	25.7825	5.98407	66.7535	1
7959	15.5018	18.6355	14.8833	28.693	1
7962	34.6719	33.9359	1.18718	176.561	8
7964	55.6126	20.2145	17.1573	-46.998	2
7965	24.7212	23.0618	19.3169	139.881	1
7966	26.9283	13.8728	21.1311	152.759	1
7968	19.3389	25.8232	16.6998	-132.082	1
7970	14.7581	11.0198	19.3837	9.50549	1
7972	13.2927	17.221	7.34315	-121.403	1
7974	19.4973	15.6718	13.1213	-179.641	1
7975	13.0751	17.8998	19.9052	-104.72	1
7976	10.236	20.8515	13.6599	107.846	1
7985	56.3569	20.1452	16.2193	-93.1436	4
7991	24.5217	20.6577	15.8229	-178.576	1
7992	30.3635	24.6157	14.6266	153.223	2
7997	21.4311	11.5254	5.76077	62.9722	1
8009	19.2352	12.6706	16.4636	154.573	1
8011	55.1952	10.7028	10.0579	-2.64429	3
8016	59.5678	22.1636	9.29362	108.479	5
8021	13.8259	22.1057	20.4339	-59.9609	1
8022	15.5451	17.0309	5.134	-160.771	1
8034	21.9123	13.2511	7.75787	96.0354	3
8035	11.2659	32.5956	14.262	15.5264	1
8039	26.1472	22.4409	23.5226	-143.214	1
8040	27.7906	21.7248	24.3377	176.561	1
8048	17.895	17.5828	18.8109	46.3682	5
8053	22.5524	22.9304	18.3382	-115.812	1
8055	11.3896	17.9594	12.3046	-121.079	1
8056	16.7309	32.147	1.80988	-83.1406	1
8058	15.5368	13.7919	6.00876	-3.86724	2
8063	28.4322	36.0243	25.6797	179.765	1
8064	10.7179	16.4273	21.9402	-179.891	1
8065	43.2204	22.5591	22.7478	-15.2114	3
8067	36.295	26.7536	9.27032	-116.233	6
8068	12.5925	14.2272	6.13334	-172.857	4
8069	11.3018	19.7448	14.6423	-28.4281	1
8070	26.7397	17.7154	13.8784	156.937	4
8071	38.3452	14.1947	7.09585	75.7599	3
8073	10.9985	13.4503	15.6629	43.2004	2
8075	12.8804	33.6498	19.2452	-73.3084	2
8081	12.6713	23.4741	21.8544	129.783	1
8082	16.1858	23.109	13.1035	-82.9786	1
8086	12.8535	28.0809	10.2253	106.581	1
8087	72.6348	17.9622	10.3784	51.2843	5
8089	26.1527	19.1858	19.3177	118.949	2
8094	16.052	54.0386	23.9682	-77.6428	1
8098	33.8386	17.1947	14.093	-65.3494	1
8100	34.2946	13.7963	20.3437	-15.9592	2
8101	12.3374	7.70395	15.5806	-176.779	3
8105	12.5287	19.6906	12.0976	-10.8908	1
8107	15.9617	18.5522	19.5399	-69.2726	1
8108	10.4555	18.0908	13.3465	-127.496	1
8110	15.4633	17.2415	24.7051	92.4954	1
8111	46.3769	18.0115	8.9794	86.0977	1
8113	17.9885	16.9099	22.1364	44.2957	2
8119	19.8657	15.773	13.4317	-118.674	1
8125	19.8985	17.1095	22.4003	-69.6596	1
8126	73.4008	24.6423	14.1915	-22.5658	3
8129	10.2697	13.712	24.2638	172.856	1
8133	19.6987	20.3357	19.5695	142.008	1
8141	30.2592	16.6007	19.4533	-78.0364	4
8143	57.679	14.6813	23.0574	18.9289	19
8144	31.3793	22.6935	11.7687	91.734	2
8145	10.9655	22.9741	17.1445	-112.949	1
8146	43.9452	24.0586	8.8649	-19.8797	1
8147	24.2488	24.373	19.8904	99.8187	1
8148	15.8696	31.627	20.9088	62.4358	1
8149	99.2339	21.2375	5.44665	36.2746	4
8151	12.5529	12.6262	18.889	-3.79256	1
8156	23.181	35.2078	23.5325	151.699	2
8157	46.1956	14.5837	11.7219	-126.388	1
8158	55.9377	24.7018	16.1473	-150.093	1
8159	11.8706	42.194	8.78075	-157.23	1
8160	17.0176	16.3394	14.8514	-178.215	1
8170	12.3257	16.7569	18.9121	143.171	4
8174	18.1289	14.1205	12.7161	18.7441	1
8175	26.8317	17.9745	19.6301	136.512	1
8181	58.5388	14.9921	23.1395	-75.9049	1
8186	41.1887	20.0052	22.1977	31.5838	1
8187	74.1821	25.7793	23.61	-125.924	2
8189	18.7961	14.9174	17.1187	57.6994	1
8193	14.5942	15.2234	16.1265	-137.226	1
8195	36.6632	29.4792	22.4289	-14.0065	1
8198	26.2188	11.7052	19.236	166.596	1
8199	37.1776	26.4375	19.6532	-74.2158	2
8203	19.4618	11.6529	24.9005	102.189	2
8209	13.8211	19.9892	18.4334	-156.384	1
8211	16.0534	47.689	24.762	145.728	1
8217	43.4958	24.2553	19.1889	152.549	3
8218	27.7679	26.3229	18.7184	-178.001	5
8222	32.9284	15.1014	9.7662	83.5265	3
8224	29.3531	24.6483	14.2051	40.9784	2
8226	47.6326	19.3884	9.96876	-21.652	3
8232	19.4359	29.1253	7.88757	-88.4848	1
8236	10.7327	17.7503	15.5319	-20.0396	1
8239	21.2133	18.5043	17.1323	-52.8615	7
8240	18.8846	23.5214	20.1148	-25.3525	1
8241	16.0477	26.5972	18.3037	10.3717	1
8245	22.1014	16.1165	24.0035	-172.504	1
8247	13.948	20.3043	24.2698	178.423	1
8248	24.7864	26.8132	15.4042	75.6967	1
8250	20.593	19.4739	18.8628	-2.84661	2
8251	22.5673	31.2065	17.011	172.365	1
8255	18.715	17.0466	15.4349	-80.9281	1
8258	41.3003	25.6752	18.3238	43.999	1
8266	11.1475	17.6608	14.9509	-99.1313	1
8269	48.2699	16.6825	12.1489	-74.2738	2
8272	29.7491	22.1244	22.5524	-64.3991	1
8275	11.0918	23.6826	13.2319	-103.563	1
8276	39.1357	14.6093	1.89739	57.3651	1
8278	14.3794	21.1738	23.9251	134.752	1
8282	10.3906	10.3445	21.2556	76.1206	1
8283	24.9728	28.6531	14.4497	110.31	4
8284	11.8152	25.5908	15.4671	-136.059	3
8288	11.383	15.9619	21.786	-130.282	1
8290	25.3046	8.79791	25.7596	164.61	1
8291	58.8209	20.0243	14.9113	-162.829	2
8294	37.6399	26.6435	22.514	-85.3835	1
8296	51.7787	16.4509	17.8311	-89.2378	3
8300	22.475	11.3314	22.3256	-114.725	1
8301	14.7172	18.8723	20.7074	31.9284	1
8306	23.5948	20.1219	20.1109	56.2287	1
8307	10.0538	33.1347	17.0005	-60.0132	1
8308	12.3366	24.8822	24.2407	-109.087	1
8318	13.6389	23.0861	23.1546	35.453	1
8322	14.4058	20.9957	12.0018	1.96323	2
8326	33.2909	35.3819	18.6331	11.7562	1
8334	12.9577	19.8962	19.7014	-76.5267	1
8335	56.6366	13.1723	14.4395	-171.914	6
8337	12.3986	13.0918	20.5558	-137.38	2
8342	48.8912	16.9193	8.71572	155.587	3
8344	20.4357	8.61321	11.2708	-70.9837	1
8345	15.8705	12.1864	13.5517	-40.5398	3
8351	10.5855	21.6318	21.0712	-6.10509	1
8354	10.7453	20.9452	11.8518	14.2345	5
8355	18.1471	17.5537	12.831	-40.56	1
8356	21.0215	44.3878	19.0969	-41.5592	1
8359	11.9398	14.6299	25.322	-83.7124	1
8361	58.1091	19.762	23.3545	-78.4485	2
8362	14.8494	16.1312	22.3092	-142.904	1
8363	19.9719	20.7126	12.0028	31.0199	1
8373	11.1607	22.2084	22.925	62.6014	1
8376	44.5318	17.3929	17.7756	-158.024	1
8378	92.7321	21.9726	10.869	-159.721	5
8380	23.1824	25.9327	2.61513	-177.191	1
8391	10.0163	14.9738	18.146	-85.9842	2
8393	13.7543	13.6169	16.4661	59.236	1
8394	11.7665	13.8369	15.5869	-17.9923	1
8396	45.6707	15.4099	17.432	84.0267	1
8401	13.8587	41.8244	10.8303	-111.506	1
8402	13.0588	23.3219	18.2693	94.9176	1
8404	13.797	48.6621	10.4958	137.203	1
8405	54.0229	27.2917	22.8481	128.056	3
8410	31.0909	24.038	18.8158	-43.0248	2
8415	34.8943	23.0635	11.0898	107.49	1
8419	65.4622	18.2474	24.058	-26.742	1
8422	27.7144	15.6737	15.8274	37.0594	2
8426	36.9056	28.6482	9.12001	124.409	1
8427	16.5416	34.4624	23.9658	80.3268	1
8428	35.8613	20.8651	11.9202	56.507	1
8429	20.345	26.2131	12.9201	-158.272	1
8432	19.3205	14.9694	21.5091	31.0943	2
8433	15.5612	15.74	23.6964	-96.5417	1
8439	12.5448	13.8794	17.8935	-149.844	1
8441	16.7028	17.3026	21.7964	-161.863	1
8442	27.7174	10.7884	20.6879	-91.2073	1
8448	16.5805	26.4217	23.2733	103.437	1
8449	27.1982	20.4705	21.4678	-134.041	1
8455	23.5214	23.3544	8.02783	-69.1095	2
8458	13.0879	16.3219	17.6048	65.1664	1
8462	47.0095	19.9137	17.0359	160.322	4
8466	37.1225	22.5371	4.72024	65.4131	1
8468	13.7149	23.2197	13.0621	-62.2169	1
8471	13.4687	24.0567	5.57713	-144.107	1
8472	18.8052	13.0846	9.6235	83.1485	1
8473	20.7765	23.4772	15.8332	-109.183	2
8475	30.006	13.2006	19.5645	-35.5126	3
8476	23.563	11.3197	21.6078	-2.87582	1
8477	12.8261	9.5871	18.1722	160.549	1
8478	18.8345	41.4777	24.3207	4.94576	2
8484	17.0621	16.6032	9.89948	-175.414	1
8485	12.2301	13.1566	17.1316	-45.0481	1
8487	31.4859	13.9924	20.1664	35.3333	1
8489	23.5038	26.8331	21.2492	-84.2263	1
8490	28.8087	15.5363	18.4333	80.949	1
8492	19.6815	15.1189	16.963	-45.0989	1
8495	19.986	10.9989	22.431	127.901	3
8496	85.9061	25.3423	16.5441	26.2207	46
8499	12.8862	14.9504	8.49791	117.886	1
8506	20.6302	26.9873	21.2505	-103.599	1
8510	11.4963	18.3381	19.3444	122.264	1
8511	27.2424	24.4879	8.13116	59.2095	1
8513	10.0958	10.1094	23.4232	123.364	2
8517	17.5146	30.3657	15.872	2.76764	2
8518	24.6462	16.6456	9.6477	-78.5846	2
8520	42.79	14.7703	18.2014	85.5869	3
8528	26.6267	25.2603	16.1775	-21.0386	3
8529	57.2854	20.1936	21.2198	-99.8655	2
8531	71.2543	24.258	25.5485	120.085	3
8533	14.7423	27.3733	23.2919	90.8189	5
8535	33.6989	18.44	23.7943	-24.6828	1
8546	15.8797	12.0691	11.7973	-179.547	1
8551	51.1598	13.4017	13.2409	67.4551	3
8554	26.0307	8.66196	13.9149	-150.902	1
8567	67.3035	22.8412	18.6221	125.45	3
8568	17.5365	18.2467	22.9533	-156.559	1
8569	59.599	19.6598	23.7712	88.5711	1
8575	10.5329	13.1536	2.57334	132.493	2
8577	17.1548	37.195	20.056	166.475	1
8585	33.0327	33.9021	13.1191	-173.028	2
8586	10.9402	9.70746	11.4895	-35.0346	2
8590	10.6908	16.2264	14.631	-109.945	1
8599	13.101	18.9025	23.5771	32.1936	1
8601	15.7699	12.2133	22.5791	178.179	1
8603	14.4195	15.5595	14.8958	-76.848	1
8605	14.9316	14.3558	14.2249	178.632	1
8608	68.3844	26.2158	13.4788	-125.484	2
8610	34.6478	14.9315	16.9216	118.421	1
8617	17.8909	18.5109	12.3591	-158.319	4
8624	65.8929	13.6631	18.0662	-30.8662	6
8629	11.5788	21.2886	19.093	-36.7952	1
8632	48.7026	28.5561	18.2947	124.802	2
8633	37.197	25.9623	10.6232	-164.518	1
8634	10.7711	19.9043	14.9121	170.648	1
8637	27.0837	27.2136	4.87002	-31.8001	1
8640	11.5845	16.1461	14.6962	-107.962	1
8648	13.4326	16.5664	17.0022	-178.584	1
8651	10.5225	49.9024	22.3847	25.3828	1
8652	20.7136	19.3036	15.4975	-134.45	1
8653	12.8774	14.8515	14.6631	164.992	1
8654	25.9223	16.5006	13.4228	-41.3237	12
8656	18.8812	26.9118	18.4513	152.196	1
8659	20.9401	21.7938	21.5513	63.7563	1
8663	24.2394	24.1096	15.8839	-169.526	2
8668	34.318	17.5316	24.7281	-63.9936	1
8673	21.5272	15.6726	11.7574	-58.4993	5
8686	51.7597	13.4892	21.9612	-152.45	7
8689	36.0109	19.0369	23.2289	147.131	2
8696	33.9484	9.32328	17.768	118.787	5
8697	21.8754	25.8781	16.1434	-153.7	6
8698	17.3552	10.1661	18.5739	119.041	1
8701	17.3876	22.0398	25.3446	32.3367	1
8703	54.6556	19.0416	11.2559	79.5513	3
8704	41.6348	22.9189	18.1735	-129.323	1
8708	67.8228	33.3075	2.23335	-11.8128	1
8709	35.7911	37.1646	18.8908	-173.447	1
8711	47.5977	17.6433	17.4822	1.75849	4
8717	96.8044	15.4943	12.0817	-6.68972	4
8720	37.3489	14.6715	5.69695	-125.969	1
8721	12.6611	19.5906	24.0291	5.87902	1
8722	35.5711	14.2169	23.3395	-153.026	1
8730	45.3046	35.2963	21.1227	10.1562	1
8733	12.4991	18.8678	11.1084	-153.91	1
8735	95.2968	40.9861	12.3827	33.7713	5
8742	13.5187	19.0422	19.4988	-49.4606	1
8744	67.5567	20.4489	8.4817	77.2016	3
8748	16.939	16.784	1.94443	89.3794	1
8749	26.9956	10.4764	20.8692	-21.0052	3
8751	10.6423	10.6938	14.6248	79.6329	1
8754	12.1079	35.9487	10.0778	-38.9595	1
8755	11.7126	10.8609	16.0947	173.894	1
8757	69.8096	14.9991	13.9689	153.951	5
8758	16.5417	19.2636	16.4385	112.186	1
8759	12.3334	34.6572	16.642	-60.9681	1
8761	14.1657	15.6381	19.7254	8.43979	1
8763	26.7429	9.21012	12.5095	60.1876	1
8764	83.4305	20.8711	14.9445	-163.038	1
8765	10.1465	26.3366	12.5143	-0.574058	1
8766	41.1189	20.4277	21.6585	14.3506	3
8767	20.5662	22.74	7.37742	-126.888	1
8768	13.1421	13.1956	3.19826	130.255	1
8771	23.4552	21.6758	19.3947	-108.951	1
8775	37.16	14.8205	18.3645	30.6458	1
8777	31.0695	23.1071	21.5417	23.1072	1
8779	10.433	21.7821	16.8349	-52.7799	3
8781	38.2089	15.0504	23.4074	-61.8472	1
8782	11.8677	22.6234	21.4255	35.6721	1
8784	31.4766	20.7613	17.9244	161.921	1
8786	28.9955	23.9985	16.8972	-142.799	2
8787	24.2801	16.1069	18.4832	150.155	1
8797	10.7776	70.3438	25.7182	124.419	2
8800	12.6034	14.705	14.8739	120.467	1
8801	41.9729	11.3518	9.3824	151.519	6
8802	14.1218	12.3961	11.7304	172.078	1
8803	38.6771	19.789	21.9209	125.579	2
8804	13.9022	13.1667	20.0557	134.254	1
8805	13.4358	22.6259	10.0108	95.6485	1
8806	68.1278	26.477	12.8259	79.6958	1
8810	18.0177	31.2645	12.0921	-36.8056	1
8811	25.78	21.253	18.1507	-31.4671	2
8817	30.1285	29.6601	21.3181	112.428	1
8818	16.3078	8.84552	4.46128	79.2984	4
8821	52.4194	20.5296	17.2101	-6.87034	3
8822	32.2225	19.4854	22.0942	85.359	1
8825	19.1547	14.4858	18.8083	-140.709	1
8826	38.0863	23.3776	25.2296	-179.986	2
8827	26.3061	12.9118	14.3405	36.8601	1
8828	14.5245	14.5921	18.0739	-92.7574	2
8831	39.4448	31.1205	23.7427	-38.8213	1
8834	22.4924	15.293	15.9454	119.339	1
8836	15.7335	13.5747	18.1604	18.6079	1
8841	40.4428	21.4614	23.7175	-48.6291	5
8846	16.7121	14.8543	7.66523	71.006	1
8847	15.1037	20.5686	10.8376	120.162	1
8848	25.1603	28.5173	21.2054	45.8033	1
8851	46.8501	19.9511	2.8529	-139.239	3
8852	14.7227	20.8967	21.852	119.538	1
8853	10.4557	21.1219	18.0124	-24.1348	1
8855	25.3287	22.8802	18.3407	51.9177	1
8856	14.9695	18.7466	23.7334	45.8496	1
8857	20.2693	12.1279	23.1692	-84.2963	4
8858	14.2499	18.2937	14.4835	-124.243	1
8860	37.0219	13.1737	25.4708	-38.2934	2
8861	47.824	24.6645	14.3368	176.437	1
8863	18.2462	19.3486	24.2176	79.6798	1
8866	18.9622	15.447	23.2568	67.7607	2
8868	26.8795	19.8557	7.70099	-57.9673	1
8870	18.7746	16.6963	18.2067	55.29	1
8874	12.5041	13.1955	19.6156	-51.717	2
8875	25.0847	23.4962	18.157	-48.8126	1
8876	17.759	16.8261	22.7604	67.8061	1
8877	17.779	23.2611	24.9695	68.9253	1
8880	42.6545	16.4975	19.3696	142.944	2
8887	30.1471	27.3444	15.6765	-122.443	1
8895	15.0919	9.53465	11.4118	151.616	1
8901	10.6263	32.0227	16.9007	-23.5058	1
8903	11.6083	17.7462	23.3484	-51.5316	1
8910	52.9564	22.4462	25.1128	-153.639	3
8911	22.6257	7.21561	10.3805	-133.805	2
8918	55.0068	16.1907	17.1628	-36.1045	1
8920	14.6245	17.2634	13.9914	88.3161	1
8928	25.4371	26.6116	14.8733	2.24579	1
8932	11.3258	32.1076	22.6851	-95.8229	1
8933	12.7159	7.77441	21.0668	91.3286	1
8939	20.7152	23.3063	23.8096	-75.5107	1
8940	10.691	22.9179	23.7072	-144.117	1
8941	23.7204	15.6239	20.2864	-106.327	1
8943	12.137	14.3575	18.6218	7.21734	1
8944	33.9888	17.3785	22.8262	131.886	1
8949	32.4322	25.0518	23.0131	-163.488	2
8950	23.2832	16.785	8.2928	132.364	1
8951	71.594	32.3761	11.4427	88.4355	2
8952	13.9343	23.1224	11.0978	-71.562	2
8953	24.9484	13.8425	24.5263	48.1757	2
8955	15.5609	11.8367	16.6995	-66.97	4
8960	10.6538	12.7108	14.0141	-81.4825	2
8961	40.7916	20.0886	8.73995	46.3065	1
8963	20.0362	16.1596	4.38286	-147.21	1
8964	10.3648	16.3507	16.1221	-55.3444	1
8970	22.6902	15.3867	16.4162	122.513	1
8971	16.0074	17.9071	25.6096	-89.8485	1
8973	30.575	16.993	23.024	175.971	5
8976	32.3423	16.4878	11.4689	156.878	5
8978	13.4528	41.8899	10.5499	23.8563	1
8984	11.3468	28.2853	22.0158	122.506	1
8985	27.113	26.3217	9.19441	-3.89993	1
8990	18.8788	40.886	16.0903	102.174	1
8993	15.7729	5.68579	11.0441	92.2925	1
9001	11.1682	33.6079	8.33482	72.935	1
9002	28.0466	19.3925	19.0079	-138.147	3
9004	12.2649	15.7821	13.0477	11.3882	1
9006	46.5056	19.2628	8.78876	-160.858	1
9007	61.0159	17.1281	23.6609	171.465	5
9010	10.81	10.899	14.7511	113.59	1
9014	14.5121	12.3339	6.47413	151.959	5
9016	18.5098	27.7963	18.7353	-13.5374	1
9024	19.9181	36.1788	23.3224	-97.3197	1
9028	27.7619	29.3602	23.7672	-114.645	1
9032	23.8658	15.583	24.1352	124.394	1
9034	10.2194	29.1712	11.1178	-122.463	1
9035	65.3493	22.1908	19.6545	-156.355	11
9038	10.9433	27.7482	18.6172	10.4973	1
9042	15.6139	21.8166	19.0489	-138.132	1
9046	34.4855	11.3246	18.7997	-173.6	2
9047	19.5529	20.2204	21.1793	85.2619	1
9049	12.6428	9.03049	22.542	-143.717	1
9051	44.5842	15.5227	16.4526	-91.0148	2
9055	14.8153	26.243	10.5689	22.1951	1
9056	25.1096	31.166	17.0821	-179.758	1
9058	17.6595	15.0675	11.7163	-62.7304	9
9059	17.943	17.0715	25.4303	160.463	1
9061	14.8778	5.4922	14.9839	-130.272	7
9063	27.9397	22.7608	17.8989	119.071	1
9074	33.0319	26.8456	11.0102	99.9835	3
9078	15.7839	29.1353	3.99536	-161.149	5
9081	11.9274	15.3599	25.7232	-45.5945	1
9082	12.1936	16.8886	25.2077	-78.322	1
9083	10.8395	13.7657	14.2222	146.375	1
9086	25.1892	12.3128	19.4527	-82.5843	2
9088	55.6767	10.2124	14.2284	165.51	7
9090	10.3839	24.973	19.064	-0.859612	2
9099	28.1108	15.4174	16.5589	85.4762	2
9103	72.2407	48.3586	20.675	-88.5722	2
9107	22.9302	13.0889	19.5587	-112.922	1
9109	18.821	23.0324	23.9395	-18.9299	1
9114	61.0854	22.1872	14.6327	9.34804	1
9115	40.5329	25.8382	7.0073	-51.4495	2
9116	36.8926	26.4517	11.4597	177.553	1
9120	12.9808	25.4644	16.1381	79.733	1
9123	27.9616	20.9052	25.0716	-142.823	1
9129	19.7283	30.1375	10.7054	155.065	1
9130	20.0399	13.5082	14.8254	-82.2436	1
9132	11.7726	22.0252	19.5143	100.935	2
9134	56.4356	13.4092	12.7114	118.51	3
9135	15.0235	17.196	10.6062	-135.533	1
9137	17.524	23.6577	3.17284	-160.302	1
9138	21.6102	22.2981	12.6502	-138.695	1
9141	90.2443	18.7995	10.3424	-90.4018	8
9142	11.2267	7.865	8.95181	-96.8688	7
9143	14.0899	29.5054	24.3381	-51.6515	1
9144	45.5985	29.7723	17.9517	79.0656	1
9148	16.7024	14.6122	8.1085	7.31745	2
9151	17.5655	18.0825	23.8731	-44.4987	2
9157	19.0298	16.148	2.64639	164.037	1
9161	24.1216	32.3814	18.9094	126.077	1
9164	20.1669	17.7502	23.2996	-165.701	3
9166	43.3387	21.1404	0.515915	-140.861	2
9173	15.6928	12.7483	13.0749	27.0748	1
9174	49.423	32.6344	12.7005	-96.1943	1
9176	37.9063	20.0173	11.5832	-99.0479	5
9177	17.6638	12.7968	12.8471	125.69	1
9178	40.0723	18.0842	19.4209	84.2156	2
9179	29.5484	15.987	10.0707	-174.603	2
9184	14.7451	37.732	23.7429	166.64	1
9186	10.977	13.6647	20.422	8.63319	1
9187	12.1944	8.46871	15.3793	-39.1167	1
9188	10.0918	26.5415	8.19489	80.6716	2
9190	37.2421	24.2537	4.08116	130.754	2
9191	31.0959	18.8891	19.677	-16.5475	1
9196	18.2962	21.7526	20.2839	24.9698	1
9198	12.6348	17.2834	22.1538	4.48753	1
9203	17.4448	10.7926	15.8531	14.5558	1
9204	16.8605	36.2786	24.791	89.0245	1
9208	44.0421	18.1558	5.98167	-23.4126	3
9209	46.1159	16.2602	20.553	-88.5346	5
9212	51.6844	27.2893	16.7205	-99.4791	2
9214	86.6059	21.753	19.8965	-36.7135	1
9217	15.0343	13.8978	18.5033	-30.5219	1
9221	18.9918	22.8647	12.1195	46.4595	1
9223	29.8168	15.072	19.701	86.6247	1
9224	18.7653	14.602	19.0017	-124.091	2
9228	34.9823	20.1628	12.1194	-6.98325	1
9229	43.2025	26.733	14.9769	156.702	3
9232	18.7965	25.3481	9.3876	144.382	1
9235	14.5416	10.3951	14.6283	73.9574	1
9237	46.0193	18.2511	10.5997	106.151	1
9240	21.0216	45.6249	24.63	-163.556	1
9242	11.106	12.2489	18.3514	-107.957	3
9243	21.3805	16.9183	19.7051	-68.1077	1
9253	30.3259	16.2172	14.8039	-143.312	3
9254	33.8183	19.3025	17.6323	-20.0076	1
9256	42.5197	14.7727	3.87006	27.0086	1
9261	12.2671	24.7641	18.9177	83.3321	1
9263	21.0478	26.8656	13.6797	28.3439	1
9269	46.4282	30.8827	4.36498	-111.758	1
9270	33.0594	27.0566	21.1075	-40.8226	1
9273	33.3185	20.9581	19.6987	-132.326	4
9277	22.2789	17.7687	14.2636	155.714	1
9280	15.2291	16.9145	25.7736	-179.1	1
9281	17.7654	18.6262	16.6019	70.5882	1
9282	23.5191	20.8046	16.2996	145.801	1
9284	70.9258	16.036	7.83629	-50.8251	1
9286	20.97	15.8255	22.5627	-61.4156	1
9291	11.8818	14.3873	25.3529	-45.9808	1
9293	11.4626	23.8505	11.3782	-136.004	1
9299	27.0515	14.2361	14.4259	-32.1911	1
9303	57.6601	13.7235	4.81089	-83.1658	3
9307	16.3866	11.6361	2.74693	78.8706	16
9309	11.3217	21.4056	11.2153	43.2311	1
9312	12.5029	20.7853	18.0545	49.4899	2
9314	44.507	18.9055	6.78113	58.2219	4
9317	11.3501	16.2692	14.3682	-99.7463	1
9319	16.0372	13.5924	7.47779	-31.3114	1
9321	38.2828	4.40246	5.56548	112.194	21
9324	15.2756	21.5347	14.2286	80.7377	1
9325	32.8363	14.8562	16.744	18.5139	2
9327	62.697	9.62495	17.3961	-14.4899	9
9329	12.522	11.9719	18.9374	110.183	1
9333	14.754	21.9558	20.1666	-169.034	2
9339	20.7442	17.2352	23.6501	5.02228	1
9342	18.9329	13.1953	15.5374	-137.68	2
9348	13.5536	25.0099	24.3172	-94.1918	1
9352	19.2415	10.8855	21.3675	19.9627	1
9355	60.1758	35.6172	11.3095	-1.38332	6
9360	29.906	13.3761	21.4024	82.0867	3
9365	20.6839	15.3406	9.54717	51.8418	1
9366	37.9834	27.0917	16.4882	115.029	2
9367	20.799	20.1607	22.8444	-116.738	1
9378	26.7622	18.1626	21.4333	43.5757	1
9380	61.521	16.4175	4.79037	85.6154	4
9381	18.6153	28.8273	20.7165	141.546	1
9382	16.0022	19.8056	19.3359	-43.459	1
9383	18.0107	17.2148	5.86821	-105.778	1
9384	22.9376	15.9255	22.3325	157.287	7
9391	22.1304	14.8217	15.6018	-48.3275	1
9394	30.5824	19.6623	23.8282	-51.5463	1
9395	15.5028	15.9367	7.87239	-20.5799	1
9402	29.9087	10.9273	12.887	21.9624	6
9406	21.1919	27.785	23.3721	40.8975	1
9407	63.7981	18.029	20.1979	176.32	1
9409	23.086	18.4517	9.40585	78.4621	1
9412	29.0042	5.98868	18.0742	-70.825	5
9414	41.685	28.1582	21.8638	94.4816	1
9415	13.3085	14.9547	25.3979	88.0456	1
9420	72.8512	22.5678	10.7053	-0.790075	2
9421	18.1119	18.6694	17.0336	-6.6379	1
9423	45.2746	16.145	12.7347	-87.483	1
9426	16.4303	23.8059	24.0297	-100.486	1
9429	11.7806	14.8912	16.6731	103.096	1
9433	41.9928	21.0359	16.5	98.7607	1
9435	26.5366	14.4509	18.8748	-39.1054	1
9439	60.5147	28.9918	23.5859	92.3184	1
9441	43.4881	21.877	24.8038	110.861	3
9445	33.8455	16.4339	16.6851	-88.4611	3
9447	11.4244	56.2467	7.60343	109.226	1
9448	24.0411	25.0052	15.8239	-79.7646	1
9450	36.7068	14.4453	7.75841	-145.665	2
9454	49.6823	13.6068	15.4739	-91.1513	5
9457	12.7314	12.87	22.2255	88.7503	2
9459	14.6869	16.6981	18.1346	-58.848	1
9475	13.2413	29.2513	23.0682	-38.1988	1
9479	10.2032	10.3156	6.96215	-116.152	2
9481	57.3206	39.2146	21.9146	-69.58	2
9483	47.2586	20.1708	16.8328	-44.0394	2
9486	13.4767	25.167	21.2353	-175.036	1
9487	29.6047	24.9266	10.6145	142.3	3
9492	25.349	25.5369	21.4497	74.7228	1
9493	39.5666	14.2678	13.6592	51.3012	2
9494	12.0689	14.7775	12.2157	84.1162	1
9497	27.5064	26.79	22.215	-113.437	1
9501	17.6503	18.3817	12.1826	-153.555	1
9502	99.9829	17.2618	25.1846	168.286	7
9508	27.6697	23.3719	23.3067	65.3952	1
9511	11.681	11.8479	15.8553	-151.977	3
9512	34.3	19.1173	21.4443	-76.3538	1
9521	30.3641	13.4161	12.2148	112.122	1
9523	11.0511	15.1385	13.1715	-141.506	1
9528	24.6282	8.85679	22.1859	-166.992	2
9531	17.1885	20.5474	20.6833	-168.904	1
9535	16.7129	29.7105	23.6585	27.3026	1
9536	17.2639	33.7332	14.4786	-112.528	1
9538	10.2041	26.3097	24.2106	-167.845	1
9540	17.2391	8.85236	16.1384	48.279	5
9541	44.238	16.5781	15.2737	132.759	1
9543	53.2559	39.0096	22.679	68.7962	2
9544	25.2694	25.43	22.3146	-92.2271	1
9545	76.6661	27.9275	11.3916	54.4091	2
9547	11.3777	28.4768	18.5076	97.6011	1
9549	22.4169	17.6437	7.38481	-68.3947	1
9553	11.5801	18.8485	21.7651	151.755	1
9554	11.7757	24.261	25.5763	-147.99	1
9555	16.381	14.5826	20.2185	-164.963	1
9556	18.9838	37.0309	11.0314	107.819	1
9558	11.8427	14.359	15.095	-113.697	1
9561	43.8489	20.2078	22.3047	165.246	2
9568	10.3897	15.9225	3.65699	96.9263	1
9574	75.9151	34.5404	1.99179	-130.971	3
9578	36.7047	16.0784	21.7786	141.179	2
9580	26.5264	21.8322	14.567	69.577	1
9583	69.8641	19.0222	25.0202	105.636	1
9584	22.5512	13.6606	6.28295	92.368	1
9586	21.1625	14.4788	18.1697	4.21645	3
9595	15.866	10.9351	24.6917	84.8971	1
9607	26.1731	19.4926	18.477	152.978	1
9609	26.9564	15.6422	19.2006	-152.249	1
9610	77.1226	20.1688	5.73587	35.6828	3
9616	30.4428	25.1888	15.537	131.634	1
9618	10.1604	15.9637	10.5734	178.22	1
9620	11.5694	32.9654	4.35636	-64.1062	1
9623	14.5931	26.5687	23.8732	-118.916	1
9625	11.0045	16.3093	14.8049	75.9405	1
9630	28.8096	18.7123	19.7181	109.828	3
9631	78.212	18.2636	22.0844	20.6371	4
9632	11.7289	20.2788	19.7908	131.234	1
9636	11.7164	13.6158	13.4468	-142.912	1
9639	15.8909	18.2108	23.3836	76.6297	1
9640	11.6914	18.9288	18.898	-95.054	1
9643	21.8529	19.053	14.4733	-92.795	1
9645	13.26	26.1877	17.1299	55.3745	1
9647	40.565	23.3735	12.759	-26.9553	1
9655	15.5786	13.233	16.1893	-126.14	2
9659	12.6846	38.5847	9.98348	92.0087	1
9662	41.2299	20.1075	10.9492	-103.732	1
9666	67.2752	22.9607	17.1847	160.927	8
9669	14.6355	7.97909	24.6512	-16.1384	1
9674	11.0888	18.853	8.73977	-37.8384	2
9678	82.9655	38.1096	22.9315	-134.817	2
9682	22.829	13.0359	24.4241	122.364	1
9686	12.9484	17.8823	6.65238	-24.1221	2
9689	11.6843	33.4313	13.1967	-167.009	1
9690	10.2851	10.8636	17.4041	-49.8071	1
9692	19.3152	11.0132	22.4427	47.2669	4
9694	10.0094	10.5933	8.09951	-62.0477	1
9695	18.7392	10.8611	13.9478	-152.907	1
9696	21.2034	23.1484	22.2315	144.835	7
9697	10.9797	21.1316	25.5775	-152.621	1
9698	55.3983	14.5653	25.4794	-79.3898	3
9700	15.5142	28.4264	21.2082	-11.9069	1
9701	12.6198	14.1596	7.13032	-4.08113	1
9703	31.0493	31.4772	21.0559	123.729	2
9707	12.0021	25.5197	13.5205	162.421	1
9710	16.4667	29.894	2.15599	-59.4148	1
9712	11.9499	27.7852	17.8073	23.876	1
9715	28.5367	32.383	20.7091	58.8881	1
9716	42.8874	31.4952	23.3015	132.964	2
9717	16.1463	13.5284	6.76337	75.8429	2
9720	18.0167	24.9791	19.0705	43.2909	1
9723	28.8018	21.7588	17.7357	1.58664	1
9725	70.2152	23.7594	14.6298	-175.022	2
9727	35.1558	16.2553	19.9749	-66.0223	1
9729	37.6737	17.778	16.9876	-104.885	1
9739	29.3311	19.0677	13.6118	-16.7054	1
9740	13.0343	12.8136	24.0052	-165.208	1
9742	17.7245	17.0108	16.2101	-142.885	1
9743	10.8293	8.73856	12.5807	132.47	1
9746	31.7325	37.5274	17.1206	162.998	1
9747	19.5848	23.8558	13.7277	97.9824	1
9749	49.6066	12.7429	12.6367	-79.2365	6
9754	10.8879	25.3445	5.45679	25.5899	1
9761	12.1646	35.7163	21.294	157.252	1
9763	34.6614	27.6705	18.7433	159.828	1
9764	30.1545	21.3971	16.0153	54.2355	1
9766	16.7965	13.4573	23.3811	-33.0845	1
9768	87.9991	9.3156	24.8915	29.3404	5
9772	21.7279	28.4622	11.9357	72.4841	1
9776	39.1391	27.2775	9.88799	9.53975	1
9777	57.4856	20.5496	15.9871	-87.4987	1
9783	13.9555	19.2237	11.5414	-173.544	1
9787	19.282	7.88244	18.895	-42.1246	4
9791	46.6431	14.1439	5.52258	-95.8729	1
9794	17.4683	14.6642	17.8097	123.662	1
9796	36.6306	26.8221	15.0435	113.912	3
9797	12.5308	36.428	21.9512	-154.648	1
9798	21.3917	19.6261	7.87817	-92.69	1
9801	17.0435	17.6302	21.0495	-3.27755	1
9803	14.1315	14.2099	21.5264	-56.4302	3
9805	17.4897	15.2782	11.4459	-113.781	1
9806	22.6139	22.3189	17.4326	-125.012	2
9808	16.4046	25.2633	11.4966	-68.7063	1
9809	45.4618	10.2828	14.2943	152.523	2
9810	13.3361	18.2669	21.1031	163.572	3
9814	10.6387	16.3057	1.9956	83.7809	1
9821	86.1844	38.0192	13.6222	-45.8931	6
9822	21.2796	48.0198	21.7418	8.12288	1
9824	13.59	27.6678	15.3594	-49.5969	1
9828	14.4463	17.1426	6.82894	-94.9615	1
9829	11.1942	10.076	23.3034	-169.689	2
9830	65.893	19.3436	11.9153	-0.240105	1
9840	14.6527	12.6163	12.9295	-147.338	1
9842	19.7175	9.96891	10.2322	-37.3197	1
9843	17.9433	19.4745	14.0356	58.7618	1
9847	10.0624	8.66983	20.1567	-67.1014	4
9849	13.6478	14.6833	24.78	139.8	1
9850	13.2595	12.173	12.5211	77.8247	4
9851	19.5364	16.0418	24.9997	-21.9134	1
9852	12.7529	11.3217	1.3038	77.2124	1
9853	25.3095	10.5873	25.2307	-177.813	4
9856	21.8572	17.6698	14.1177	-12.2047	2
9858	11.8705	19.0623	19.6047	120.02	1
9861	14.8107	15.5107	15.0419	135.818	1
9864	76.6344	6.4536	22.6092	-174.786	18
9868	12.121	15.8149	21.7218	-27.0102	1
9869	17.8495	13.9625	24.3028	-126.633	1
9871	13.8694	13.0285	3.41116	66.5174	1
9875	16.0519	9.36114	22.0932	-155.407	2
9878	20.0198	14.651	21.229	153.848	1
9882	63.2513	22.4467	8.19582	101.653	31
9886	31.7974	26.5775	16.98	-65.866	2
9887	12.5928	19.992	12.7419	-59.5612	1
9888	34.3115	14.3626	19.8826	153.662	3
9892	81.6656	15.649	2.75462	-65.7516	2
9899	15.4392	17.9591	20.4382	-115.062	1
9904	32.959	15.4804	13.4403	7.67458	1
9910	11.8557	29.1016	3.44888	-12.8343	1
9912	20.472	30.62	18.3691	-52.056	1
9914	10.4861	27.164	22.8252	25.0697	1
9915	26.4201	22.0842	23.8549	-37.9189	2
9916	11.7414	33.4147	18.4749	92.0023	1
9918	24.4975	12.531	10.0366	-149.299	2
9921	33.623	14.3054	22.5614	-5.64384	1
9922	23.3727	17.0414	20.5171	146.857	1
9924	22.4846	14.1712	14.1521	-69.7532	1
9927	22.2206	23.9933	22.4374	-118.727	1
9929	11.8586	31.3101	19.7545	39.7982	1
9935	54.5218	25.3925	8.24509	119.375	2
9938	83.2608	17.8352	14.2632	53.793	2
9939	28.3783	12.9424	11.6188	-157.203	1
9943	38.3136	20.787	6.75738	65.854	1
9947	19.5848	28.0203	14.6462	127.169	1
9953	30.4966	22.8942	5.33243	-82.2322	1
9957	50.436	19.5025	20.6179	-163.197	2
9959	30.9757	17.7078	4.73209	-60.3791	2
9973	54.4272	19.2428	20.002	10.8949	1
9979	22.3479	18.0411	24.8727	34.1376	2
9980	13.8913	30.9966	10.5255	94.2477	1
9984	14.2407	25.9362	19.3748	162.843	1
9985	41.3065	15.1235	25.4675	-10.2141	5
9986	53.663	20.2693	17.1947	-37.7217	1
9992	59.4106	15.0588	23.7878	-48.8002	5
